Time (s),Channel 1 (V)
-8.19E-05,-0.003010732
-8.19E-05,-0.003010732
-8.19E-05,-0.002676345
-8.18E-05,-0.002341958
-8.18E-05,-0.002341958
-8.18E-05,-0.001673185
-8.18E-05,-0.003010732
-8.18E-05,-0.001004412
-8.17E-05,-0.002007572
-8.17E-05,-0.002007572
-8.17E-05,-0.002007572
-8.17E-05,-0.002007572
-8.17E-05,-0.002007572
-8.16E-05,-0.001673185
-8.16E-05,-0.001004412
-8.16E-05,-0.002007572
-8.16E-05,-0.001673185
-8.16E-05,-0.001673185
-8.15E-05,-0.001673185
-8.15E-05,-0.001338799
-8.15E-05,-0.001338799
-8.15E-05,-0.002676345
-8.15E-05,-0.002007572
-8.14E-05,-0.002341958
-8.14E-05,-0.003345118
-8.14E-05,-0.002341958
-8.14E-05,-0.000670025
-8.14E-05,-0.001004412
-8.13E-05,-0.004348278
-8.13E-05,-0.004013892
-8.13E-05,-0.000670025
-8.13E-05,-1.25E-06
-8.13E-05,-0.002676345
-8.12E-05,-0.005017052
-8.12E-05,-0.001673185
-8.12E-05,-0.002341958
-8.12E-05,-0.004013892
-8.12E-05,-0.001338799
-8.11E-05,-0.001338799
-8.11E-05,-0.002007572
-8.11E-05,-0.001338799
-8.11E-05,-0.001338799
-8.11E-05,-0.002341958
-8.10E-05,-0.002676345
-8.10E-05,-1.25E-06
-8.10E-05,-0.001338799
-8.10E-05,-0.002007572
-8.10E-05,-0.002007572
-8.09E-05,-0.002676345
-8.09E-05,-0.003010732
-8.09E-05,-0.002341958
-8.09E-05,-0.002341958
-8.09E-05,-0.003679505
-8.08E-05,-0.000335639
-8.08E-05,-0.002341958
-8.08E-05,-0.003010732
-8.08E-05,-0.001004412
-8.08E-05,-0.003010732
-8.07E-05,-0.003010732
-8.07E-05,-0.002007572
-8.07E-05,-0.001673185
-8.07E-05,-0.002676345
-8.07E-05,-0.002676345
-8.06E-05,-0.000670025
-8.06E-05,-0.002341958
-8.06E-05,-0.002341958
-8.06E-05,-0.002007572
-8.06E-05,-0.002676345
-8.05E-05,-0.001004412
-8.05E-05,-0.000670025
-8.05E-05,-0.002007572
-8.05E-05,-0.001338799
-8.05E-05,-0.002007572
-8.04E-05,-0.001338799
-8.04E-05,-0.001673185
-8.04E-05,-0.002007572
-8.04E-05,-0.002341958
-8.04E-05,-0.001673185
-8.03E-05,-0.002007572
-8.03E-05,-0.001673185
-8.03E-05,-0.003010732
-8.03E-05,-0.003345118
-8.03E-05,-0.003345118
-8.02E-05,-0.001338799
-8.02E-05,-0.002007572
-8.02E-05,-0.003010732
-8.02E-05,-0.002676345
-8.02E-05,-0.001673185
-8.01E-05,-0.002007572
-8.01E-05,-0.002341958
-8.01E-05,-0.002676345
-8.01E-05,-0.003010732
-8.01E-05,-0.003010732
-8.00E-05,-0.002341958
-8.00E-05,-0.002676345
-8.00E-05,-0.003345118
-8.00E-05,-0.002007572
-8.00E-05,-0.001338799
-7.99E-05,-0.001338799
-7.99E-05,-0.003010732
-7.99E-05,-0.002676345
-7.99E-05,-0.002676345
-7.99E-05,-0.002007572
-7.98E-05,-0.002676345
-7.98E-05,-0.002341958
-7.98E-05,-0.003345118
-7.98E-05,-0.001673185
-7.98E-05,-0.002676345
-7.97E-05,-0.002007572
-7.97E-05,-0.003345118
-7.97E-05,-0.001673185
-7.97E-05,-0.001338799
-7.97E-05,-0.001673185
-7.96E-05,-0.002007572
-7.96E-05,-0.002676345
-7.96E-05,-0.002341958
-7.96E-05,-0.002341958
-7.96E-05,-0.002007572
-7.95E-05,-0.001673185
-7.95E-05,-0.001673185
-7.95E-05,-0.003345118
-7.95E-05,-0.002007572
-7.95E-05,-0.001338799
-7.94E-05,-0.001338799
-7.94E-05,-0.002676345
-7.94E-05,-0.002341958
-7.94E-05,-0.001673185
-7.94E-05,-0.002341958
-7.93E-05,-0.001004412
-7.93E-05,-0.002341958
-7.93E-05,-0.001673185
-7.93E-05,-0.001004412
-7.93E-05,-1.25E-06
-7.92E-05,-0.002007572
-7.92E-05,-0.001338799
-7.92E-05,-0.001338799
-7.92E-05,-0.002007572
-7.92E-05,-0.001673185
-7.91E-05,-0.002341958
-7.91E-05,-0.001004412
-7.91E-05,-0.001673185
-7.91E-05,-0.001673185
-7.91E-05,-0.002007572
-7.90E-05,-0.003679505
-7.90E-05,-0.002007572
-7.90E-05,-0.002007572
-7.90E-05,-0.002341958
-7.90E-05,-0.001673185
-7.89E-05,-0.002341958
-7.89E-05,-0.002341958
-7.89E-05,-0.002676345
-7.89E-05,-0.002676345
-7.89E-05,-0.002341958
-7.88E-05,-0.002341958
-7.88E-05,-0.003010732
-7.88E-05,-0.002341958
-7.88E-05,-0.002007572
-7.88E-05,-0.002341958
-7.87E-05,-0.001673185
-7.87E-05,-0.001338799
-7.87E-05,-0.002007572
-7.87E-05,-0.001673185
-7.87E-05,-0.002341958
-7.86E-05,-0.001673185
-7.86E-05,-0.001673185
-7.86E-05,-0.001338799
-7.86E-05,-0.003010732
-7.86E-05,-0.002007572
-7.85E-05,-0.003010732
-7.85E-05,-0.002007572
-7.85E-05,-0.003010732
-7.85E-05,-0.002007572
-7.85E-05,-0.001673185
-7.84E-05,-0.001673185
-7.84E-05,-0.001673185
-7.84E-05,-0.002676345
-7.84E-05,-0.001673185
-7.84E-05,-0.001673185
-7.83E-05,-0.003345118
-7.83E-05,-0.001338799
-7.83E-05,-0.002676345
-7.83E-05,-0.002007572
-7.83E-05,-0.002007572
-7.82E-05,-0.002007572
-7.82E-05,-0.003345118
-7.82E-05,-0.002676345
-7.82E-05,-0.002341958
-7.82E-05,-0.002341958
-7.81E-05,-0.002007572
-7.81E-05,-0.002676345
-7.81E-05,-0.003010732
-7.81E-05,-0.003010732
-7.81E-05,-0.002341958
-7.80E-05,-0.002676345
-7.80E-05,-0.002007572
-7.80E-05,-0.001338799
-7.80E-05,-0.002341958
-7.80E-05,-0.002341958
-7.79E-05,-0.001338799
-7.79E-05,-0.002676345
-7.79E-05,-0.001673185
-7.79E-05,-0.002007572
-7.79E-05,-0.002341958
-7.78E-05,-0.002676345
-7.78E-05,-0.002341958
-7.78E-05,-0.002676345
-7.78E-05,-0.001338799
-7.78E-05,-0.002007572
-7.77E-05,-0.001338799
-7.77E-05,-0.001004412
-7.77E-05,-0.002341958
-7.77E-05,-0.001338799
-7.77E-05,-0.002007572
-7.76E-05,-0.002007572
-7.76E-05,-0.002007572
-7.76E-05,-0.001673185
-7.76E-05,-0.002676345
-7.76E-05,-0.001673185
-7.75E-05,-0.001673185
-7.75E-05,-0.001004412
-7.75E-05,-0.002341958
-7.75E-05,-0.002676345
-7.75E-05,-0.001673185
-7.74E-05,-0.002676345
-7.74E-05,-0.002341958
-7.74E-05,-0.002341958
-7.74E-05,-0.003010732
-7.74E-05,-0.001673185
-7.73E-05,-0.002676345
-7.73E-05,-0.001004412
-7.73E-05,-0.001673185
-7.73E-05,-0.002341958
-7.73E-05,-0.002341958
-7.72E-05,-0.003345118
-7.72E-05,-0.002007572
-7.72E-05,-0.002007572
-7.72E-05,-0.001338799
-7.72E-05,-0.002341958
-7.71E-05,-0.002676345
-7.71E-05,-0.001338799
-7.71E-05,-0.003010732
-7.71E-05,-0.003010732
-7.71E-05,-0.002676345
-7.70E-05,-0.001673185
-7.70E-05,-0.003010732
-7.70E-05,-0.002341958
-7.70E-05,-0.002007572
-7.70E-05,-0.002007572
-7.69E-05,-0.001338799
-7.69E-05,-0.001673185
-7.69E-05,-0.003010732
-7.69E-05,-0.001338799
-7.69E-05,-0.001338799
-7.68E-05,-0.001338799
-7.68E-05,-0.002676345
-7.68E-05,-0.001338799
-7.68E-05,-0.002341958
-7.68E-05,-0.002676345
-7.67E-05,-0.002676345
-7.67E-05,-0.001004412
-7.67E-05,-0.001338799
-7.67E-05,-0.001673185
-7.67E-05,-0.001338799
-7.66E-05,-0.002676345
-7.66E-05,-0.001673185
-7.66E-05,-0.002341958
-7.66E-05,-0.002007572
-7.66E-05,-0.001673185
-7.65E-05,-0.001338799
-7.65E-05,-0.002007572
-7.65E-05,-0.002341958
-7.65E-05,-0.002007572
-7.65E-05,-0.000670025
-7.64E-05,-0.002007572
-7.64E-05,-0.001338799
-7.64E-05,-0.002007572
-7.64E-05,-0.002007572
-7.64E-05,-0.003010732
-7.63E-05,-0.001338799
-7.63E-05,-0.002341958
-7.63E-05,-0.000670025
-7.63E-05,-0.001004412
-7.63E-05,-0.002007572
-7.62E-05,-0.001673185
-7.62E-05,-0.002341958
-7.62E-05,-0.002676345
-7.62E-05,-0.002007572
-7.62E-05,-0.001673185
-7.61E-05,-0.001004412
-7.61E-05,-0.002341958
-7.61E-05,-0.002007572
-7.61E-05,-0.002007572
-7.61E-05,-0.001338799
-7.60E-05,-0.000670025
-7.60E-05,-0.001338799
-7.60E-05,-0.003010732
-7.60E-05,-0.001338799
-7.60E-05,-0.002007572
-7.59E-05,-0.002676345
-7.59E-05,-0.002341958
-7.59E-05,-0.002007572
-7.59E-05,-0.001338799
-7.59E-05,-0.002341958
-7.58E-05,-0.001673185
-7.58E-05,-0.002007572
-7.58E-05,-0.003010732
-7.58E-05,-0.002007572
-7.58E-05,-0.003010732
-7.57E-05,-0.001673185
-7.57E-05,-0.002676345
-7.57E-05,-0.003010732
-7.57E-05,-0.002007572
-7.57E-05,-0.001338799
-7.56E-05,-0.002341958
-7.56E-05,-0.002341958
-7.56E-05,-0.002007572
-7.56E-05,-0.001338799
-7.56E-05,-0.002007572
-7.55E-05,-0.002341958
-7.55E-05,-0.002676345
-7.55E-05,-0.002007572
-7.55E-05,-0.003010732
-7.55E-05,-0.002007572
-7.54E-05,-0.001673185
-7.54E-05,-0.001338799
-7.54E-05,-0.001673185
-7.54E-05,-0.002007572
-7.54E-05,-0.002341958
-7.53E-05,-0.002007572
-7.53E-05,-0.002007572
-7.53E-05,-0.002007572
-7.53E-05,-0.002341958
-7.53E-05,-0.001004412
-7.52E-05,-0.001673185
-7.52E-05,-0.002007572
-7.52E-05,-0.003010732
-7.52E-05,-0.003010732
-7.52E-05,-0.002007572
-7.51E-05,-0.002007572
-7.51E-05,-0.003010732
-7.51E-05,-0.002676345
-7.51E-05,-0.003010732
-7.51E-05,-0.002676345
-7.50E-05,-0.001673185
-7.50E-05,-0.002341958
-7.50E-05,-0.002676345
-7.50E-05,-0.002341958
-7.50E-05,-0.002007572
-7.49E-05,-0.001673185
-7.49E-05,-0.002341958
-7.49E-05,-0.002676345
-7.49E-05,-0.002341958
-7.49E-05,-0.002341958
-7.48E-05,-0.002341958
-7.48E-05,-0.002341958
-7.48E-05,-0.001004412
-7.48E-05,-0.002676345
-7.48E-05,-0.002676345
-7.47E-05,-0.002341958
-7.47E-05,-0.002676345
-7.47E-05,-0.002341958
-7.47E-05,-0.002341958
-7.47E-05,-0.002676345
-7.46E-05,-0.002341958
-7.46E-05,-0.003345118
-7.46E-05,-0.003010732
-7.46E-05,-0.002341958
-7.46E-05,-0.002007572
-7.45E-05,-0.002007572
-7.45E-05,-0.002676345
-7.45E-05,-0.002676345
-7.45E-05,-0.002007572
-7.45E-05,-0.001673185
-7.44E-05,-0.003345118
-7.44E-05,-0.002007572
-7.44E-05,-0.002676345
-7.44E-05,-0.001673185
-7.44E-05,-0.001338799
-7.43E-05,-0.002007572
-7.43E-05,-0.001673185
-7.43E-05,-0.001004412
-7.43E-05,-0.003010732
-7.43E-05,-0.001673185
-7.42E-05,-0.001673185
-7.42E-05,-0.001338799
-7.42E-05,-0.001338799
-7.42E-05,-0.002341958
-7.42E-05,-0.001338799
-7.41E-05,-0.002341958
-7.41E-05,-0.001338799
-7.41E-05,-0.001004412
-7.41E-05,0.001670681
-7.41E-05,-0.008026531
-7.40E-05,0.000333135
-7.40E-05,-0.000670025
-7.40E-05,0.000333135
-7.40E-05,-0.006020212
-7.40E-05,-0.001338799
-7.39E-05,0.001001908
-7.39E-05,-0.002341958
-7.39E-05,-0.004013892
-7.39E-05,0.000667521
-7.39E-05,0.000667521
-7.38E-05,-0.009029691
-7.38E-05,0.003677001
-7.38E-05,-0.004682665
-7.38E-05,-0.001004412
-7.38E-05,-0.003345118
-7.37E-05,-0.003010732
-7.37E-05,-0.001673185
-7.37E-05,-0.003010732
-7.37E-05,-0.001004412
-7.37E-05,-0.001673185
-7.36E-05,-0.001004412
-7.36E-05,-0.002341958
-7.36E-05,-0.002341958
-7.36E-05,-0.001673185
-7.36E-05,-0.000670025
-7.35E-05,-0.002007572
-7.35E-05,-0.001004412
-7.35E-05,-0.001673185
-7.35E-05,-0.002676345
-7.35E-05,-0.001673185
-7.34E-05,-0.003010732
-7.34E-05,-0.002676345
-7.34E-05,-0.001004412
-7.34E-05,-0.002341958
-7.34E-05,-0.002007572
-7.33E-05,-0.002341958
-7.33E-05,-0.002341958
-7.33E-05,-0.003345118
-7.33E-05,-0.002007572
-7.33E-05,-0.003010732
-7.32E-05,-0.003010732
-7.32E-05,-0.002341958
-7.32E-05,-0.002007572
-7.32E-05,-0.003010732
-7.32E-05,-0.002676345
-7.31E-05,-0.001004412
-7.31E-05,-0.003010732
-7.31E-05,-0.001338799
-7.31E-05,-0.002007572
-7.31E-05,-0.001338799
-7.30E-05,-0.002341958
-7.30E-05,-0.002341958
-7.30E-05,-0.001004412
-7.30E-05,-0.002676345
-7.30E-05,-0.001338799
-7.29E-05,-0.002007572
-7.29E-05,-0.002676345
-7.29E-05,-0.002341958
-7.29E-05,-0.002676345
-7.29E-05,-0.002007572
-7.28E-05,-0.001338799
-7.28E-05,-0.002007572
-7.28E-05,-0.002007572
-7.28E-05,-0.002007572
-7.28E-05,-0.002341958
-7.27E-05,-0.002007572
-7.27E-05,-0.002007572
-7.27E-05,-0.002007572
-7.27E-05,-0.001673185
-7.27E-05,-0.003010732
-7.26E-05,-0.001673185
-7.26E-05,-0.002341958
-7.26E-05,-0.003010732
-7.26E-05,-0.002341958
-7.26E-05,-0.002341958
-7.25E-05,-0.002341958
-7.25E-05,-0.002007572
-7.25E-05,-0.002341958
-7.25E-05,-0.001673185
-7.25E-05,-0.003010732
-7.24E-05,-0.003010732
-7.24E-05,-0.002676345
-7.24E-05,-0.001338799
-7.24E-05,-0.002341958
-7.24E-05,-0.002007572
-7.23E-05,-0.002007572
-7.23E-05,-0.001673185
-7.23E-05,-0.001338799
-7.23E-05,-0.001338799
-7.23E-05,-0.002341958
-7.22E-05,-0.002341958
-7.22E-05,-0.002341958
-7.22E-05,-0.003010732
-7.22E-05,-0.002341958
-7.22E-05,-0.002007572
-7.21E-05,-0.002007572
-7.21E-05,-0.001673185
-7.21E-05,-0.002007572
-7.21E-05,-0.002341958
-7.21E-05,-0.003010732
-7.20E-05,-0.002676345
-7.20E-05,-0.003345118
-7.20E-05,-0.002676345
-7.20E-05,-0.003345118
-7.20E-05,-0.003010732
-7.19E-05,-0.002007572
-7.19E-05,-0.003010732
-7.19E-05,-0.002341958
-7.19E-05,-0.001673185
-7.19E-05,-0.003345118
-7.18E-05,-0.002007572
-7.18E-05,-0.002007572
-7.18E-05,-0.004348278
-7.18E-05,-0.002007572
-7.18E-05,-0.002341958
-7.17E-05,-0.002676345
-7.17E-05,-0.003010732
-7.17E-05,-0.002007572
-7.17E-05,-0.003010732
-7.17E-05,-0.002676345
-7.16E-05,-0.002676345
-7.16E-05,-0.003345118
-7.16E-05,-0.002676345
-7.16E-05,-0.002676345
-7.16E-05,-0.002007572
-7.15E-05,-0.002341958
-7.15E-05,-0.002676345
-7.15E-05,-0.001673185
-7.15E-05,-0.001338799
-7.15E-05,-0.002341958
-7.14E-05,-0.001338799
-7.14E-05,-0.002341958
-7.14E-05,-0.002341958
-7.14E-05,-0.002676345
-7.14E-05,-0.003010732
-7.13E-05,-0.003345118
-7.13E-05,-0.002341958
-7.13E-05,-0.001338799
-7.13E-05,-0.003679505
-7.13E-05,-0.003345118
-7.12E-05,-0.001673185
-7.12E-05,-0.002676345
-7.12E-05,-0.003010732
-7.12E-05,-0.002007572
-7.12E-05,-0.003679505
-7.11E-05,-0.002341958
-7.11E-05,-0.004013892
-7.11E-05,-0.002341958
-7.11E-05,-0.004013892
-7.11E-05,-0.002676345
-7.10E-05,-0.002676345
-7.10E-05,-0.002676345
-7.10E-05,-0.003679505
-7.10E-05,-0.003345118
-7.10E-05,-0.002007572
-7.09E-05,-0.002007572
-7.09E-05,-0.002007572
-7.09E-05,-0.003345118
-7.09E-05,-0.002341958
-7.09E-05,-0.001673185
-7.08E-05,-0.002341958
-7.08E-05,-0.002007572
-7.08E-05,-0.002007572
-7.08E-05,-0.002341958
-7.08E-05,-0.001338799
-7.07E-05,-0.004013892
-7.07E-05,-0.003345118
-7.07E-05,-0.001673185
-7.07E-05,0.001001908
-7.07E-05,-0.002676345
-7.06E-05,-0.004682665
-7.06E-05,-0.004013892
-7.06E-05,-1.25E-06
-7.06E-05,-0.003679505
-7.06E-05,-0.004013892
-7.05E-05,-0.001004412
-7.05E-05,-0.002007572
-7.05E-05,-0.003010732
-7.05E-05,-0.002007572
-7.05E-05,-0.002007572
-7.04E-05,-0.002676345
-7.04E-05,-0.002676345
-7.04E-05,-0.002341958
-7.04E-05,-0.003679505
-7.04E-05,-0.003345118
-7.03E-05,-0.002676345
-7.03E-05,-0.002341958
-7.03E-05,-0.002007572
-7.03E-05,-0.002007572
-7.03E-05,-0.002676345
-7.02E-05,-0.004013892
-7.02E-05,-0.002676345
-7.02E-05,-0.002341958
-7.02E-05,-0.002341958
-7.02E-05,-0.003345118
-7.01E-05,-0.003010732
-7.01E-05,-0.002341958
-7.01E-05,-0.002676345
-7.01E-05,-0.002341958
-7.01E-05,-0.002676345
-7.00E-05,-0.002341958
-7.00E-05,-0.002341958
-7.00E-05,-0.002341958
-7.00E-05,-0.001338799
-7.00E-05,-0.002341958
-6.99E-05,-0.002341958
-6.99E-05,-0.002341958
-6.99E-05,-0.002676345
-6.99E-05,-0.001673185
-6.99E-05,-0.003345118
-6.98E-05,-0.002007572
-6.98E-05,-0.003010732
-6.98E-05,-0.003345118
-6.98E-05,-0.002676345
-6.98E-05,-0.002341958
-6.97E-05,-0.002007572
-6.97E-05,-0.004348278
-6.97E-05,-0.002007572
-6.97E-05,-0.002676345
-6.97E-05,-0.002676345
-6.96E-05,-0.002341958
-6.96E-05,-0.002341958
-6.96E-05,-0.003010732
-6.96E-05,-0.002341958
-6.96E-05,-0.003010732
-6.95E-05,-0.003345118
-6.95E-05,-0.002007572
-6.95E-05,-0.003345118
-6.95E-05,-0.002341958
-6.95E-05,-0.001673185
-6.94E-05,-0.002007572
-6.94E-05,-0.002676345
-6.94E-05,-0.002341958
-6.94E-05,-0.002341958
-6.94E-05,-0.001004412
-6.93E-05,-0.002007572
-6.93E-05,-0.002341958
-6.93E-05,-0.002007572
-6.93E-05,-0.002341958
-6.93E-05,-0.002341958
-6.92E-05,-0.002676345
-6.92E-05,-0.002341958
-6.92E-05,-0.000670025
-6.92E-05,-0.002341958
-6.92E-05,-0.002676345
-6.91E-05,-0.002676345
-6.91E-05,-0.002341958
-6.91E-05,-0.003345118
-6.91E-05,-0.003345118
-6.91E-05,-0.003010732
-6.90E-05,-0.001673185
-6.90E-05,-0.002676345
-6.90E-05,-0.002007572
-6.90E-05,-0.002341958
-6.90E-05,-0.001673185
-6.89E-05,-0.002676345
-6.89E-05,-0.002341958
-6.89E-05,-0.001673185
-6.89E-05,-0.002676345
-6.89E-05,-0.002341958
-6.88E-05,-0.002341958
-6.88E-05,-0.002341958
-6.88E-05,-0.001338799
-6.88E-05,-0.003010732
-6.88E-05,-0.002676345
-6.87E-05,-0.002341958
-6.87E-05,-0.001673185
-6.87E-05,-0.003010732
-6.87E-05,-0.002341958
-6.87E-05,-0.002007572
-6.86E-05,-0.001673185
-6.86E-05,-0.002341958
-6.86E-05,-0.003010732
-6.86E-05,-0.003010732
-6.86E-05,-0.001673185
-6.85E-05,-0.002007572
-6.85E-05,-0.002007572
-6.85E-05,-0.002676345
-6.85E-05,-0.001673185
-6.85E-05,-0.002676345
-6.84E-05,-0.001338799
-6.84E-05,-0.003010732
-6.84E-05,-0.002676345
-6.84E-05,-0.003010732
-6.84E-05,-0.001338799
-6.83E-05,-0.001673185
-6.83E-05,-0.002341958
-6.83E-05,-0.002676345
-6.83E-05,-0.001338799
-6.83E-05,-0.003010732
-6.82E-05,-0.001673185
-6.82E-05,-0.001673185
-6.82E-05,-0.003010732
-6.82E-05,-0.002341958
-6.82E-05,-0.002007572
-6.81E-05,-0.002007572
-6.81E-05,-0.002676345
-6.81E-05,-0.001673185
-6.81E-05,-0.003345118
-6.81E-05,-0.002676345
-6.80E-05,-0.002007572
-6.80E-05,-0.002341958
-6.80E-05,-0.001673185
-6.80E-05,-0.002676345
-6.80E-05,-0.001673185
-6.79E-05,-0.002341958
-6.79E-05,-0.003345118
-6.79E-05,-0.002341958
-6.79E-05,-0.002341958
-6.79E-05,-0.002676345
-6.78E-05,-0.002007572
-6.78E-05,-0.002341958
-6.78E-05,-0.002007572
-6.78E-05,-0.002676345
-6.78E-05,-0.002007572
-6.77E-05,-0.002007572
-6.77E-05,-0.002007572
-6.77E-05,-0.001004412
-6.77E-05,-0.003345118
-6.77E-05,-0.001673185
-6.76E-05,-0.001673185
-6.76E-05,-0.002341958
-6.76E-05,-0.002341958
-6.76E-05,-0.002341958
-6.76E-05,-0.001673185
-6.75E-05,-0.001338799
-6.75E-05,-0.002676345
-6.75E-05,-0.002676345
-6.75E-05,-0.001673185
-6.75E-05,-0.001338799
-6.74E-05,-0.001004412
-6.74E-05,-0.001673185
-6.74E-05,-0.001004412
-6.74E-05,-0.001673185
-6.74E-05,-0.002341958
-6.73E-05,-0.001338799
-6.73E-05,-0.001673185
-6.73E-05,-0.001338799
-6.73E-05,-0.001338799
-6.73E-05,-0.001338799
-6.72E-05,-0.002341958
-6.72E-05,-0.002341958
-6.72E-05,-0.001673185
-6.72E-05,-0.002676345
-6.72E-05,-0.001673185
-6.71E-05,-0.002341958
-6.71E-05,-0.003010732
-6.71E-05,-0.002341958
-6.71E-05,-0.001338799
-6.71E-05,-0.003679505
-6.70E-05,-0.005685825
-6.70E-05,-0.000670025
-6.70E-05,-0.001673185
-6.70E-05,-0.002007572
-6.70E-05,-0.000335639
-6.69E-05,-0.001673185
-6.69E-05,-0.002007572
-6.69E-05,-0.001338799
-6.69E-05,-0.002007572
-6.69E-05,-0.002007572
-6.68E-05,-0.001673185
-6.68E-05,-0.002341958
-6.68E-05,-0.001338799
-6.68E-05,-0.002341958
-6.68E-05,-0.001673185
-6.67E-05,-0.000670025
-6.67E-05,-0.001338799
-6.67E-05,-0.002341958
-6.67E-05,-0.003679505
-6.67E-05,-0.001673185
-6.66E-05,-0.002007572
-6.66E-05,-0.002676345
-6.66E-05,-0.001338799
-6.66E-05,-0.002676345
-6.66E-05,-0.001673185
-6.65E-05,-0.002341958
-6.65E-05,-0.002341958
-6.65E-05,-0.002007572
-6.65E-05,-0.002007572
-6.65E-05,-0.002341958
-6.64E-05,-0.002341958
-6.64E-05,-0.002676345
-6.64E-05,-0.001338799
-6.64E-05,-0.002341958
-6.64E-05,-0.001673185
-6.63E-05,-0.001673185
-6.63E-05,-0.003345118
-6.63E-05,-0.002676345
-6.63E-05,-0.003010732
-6.63E-05,-0.002341958
-6.62E-05,-0.002007572
-6.62E-05,-0.002676345
-6.62E-05,-0.002341958
-6.62E-05,-0.002007572
-6.62E-05,-0.002676345
-6.61E-05,-0.002341958
-6.61E-05,-0.002341958
-6.61E-05,-0.003010732
-6.61E-05,-0.002341958
-6.61E-05,-0.002007572
-6.60E-05,-0.002676345
-6.60E-05,-0.001673185
-6.60E-05,-0.002341958
-6.60E-05,-0.002341958
-6.60E-05,-0.001673185
-6.59E-05,-0.002341958
-6.59E-05,-0.002676345
-6.59E-05,-0.001004412
-6.59E-05,-0.001673185
-6.59E-05,-0.002007572
-6.58E-05,-0.003679505
-6.58E-05,-0.002007572
-6.58E-05,-0.003679505
-6.58E-05,-0.002341958
-6.58E-05,-0.002341958
-6.57E-05,-0.002341958
-6.57E-05,-0.002007572
-6.57E-05,-0.002341958
-6.57E-05,-0.003345118
-6.57E-05,-0.002007572
-6.56E-05,-0.002676345
-6.56E-05,-0.002007572
-6.56E-05,-0.002007572
-6.56E-05,-0.002341958
-6.56E-05,-0.002676345
-6.55E-05,-0.001338799
-6.55E-05,-0.003679505
-6.55E-05,-0.001673185
-6.55E-05,-0.002341958
-6.55E-05,-0.002007572
-6.54E-05,-0.002007572
-6.54E-05,-0.001673185
-6.54E-05,-0.002676345
-6.54E-05,-0.002341958
-6.54E-05,-0.001338799
-6.53E-05,-0.003010732
-6.53E-05,-0.002676345
-6.53E-05,-0.001673185
-6.53E-05,-0.002341958
-6.53E-05,-0.002676345
-6.52E-05,-0.002341958
-6.52E-05,-0.002676345
-6.52E-05,-0.002341958
-6.52E-05,-0.002007572
-6.52E-05,-0.002341958
-6.51E-05,-0.002341958
-6.51E-05,-0.001673185
-6.51E-05,-0.001673185
-6.51E-05,-0.002341958
-6.51E-05,-0.002676345
-6.50E-05,-0.001673185
-6.50E-05,-0.002676345
-6.50E-05,-0.002007572
-6.50E-05,-0.002676345
-6.50E-05,-0.001338799
-6.49E-05,-0.003010732
-6.49E-05,-0.002341958
-6.49E-05,-0.001004412
-6.49E-05,-0.002341958
-6.49E-05,-0.002007572
-6.48E-05,-0.002007572
-6.48E-05,-0.001673185
-6.48E-05,-0.003010732
-6.48E-05,-0.003345118
-6.48E-05,-0.002341958
-6.47E-05,-0.002007572
-6.47E-05,-0.002676345
-6.47E-05,-0.003010732
-6.47E-05,-0.002676345
-6.47E-05,-0.004013892
-6.46E-05,-0.002007572
-6.46E-05,-0.001673185
-6.46E-05,-0.002676345
-6.46E-05,-0.003010732
-6.46E-05,-0.002007572
-6.45E-05,-0.001673185
-6.45E-05,-0.002341958
-6.45E-05,-0.003679505
-6.45E-05,-0.002341958
-6.45E-05,-0.002676345
-6.44E-05,-0.001338799
-6.44E-05,-0.003345118
-6.44E-05,-0.003010732
-6.44E-05,-0.003010732
-6.44E-05,-0.002341958
-6.43E-05,-0.002341958
-6.43E-05,-0.002676345
-6.43E-05,-0.001673185
-6.43E-05,-0.003010732
-6.43E-05,-0.001673185
-6.42E-05,-0.002007572
-6.42E-05,-0.002676345
-6.42E-05,-0.002341958
-6.42E-05,-0.003010732
-6.42E-05,-0.001338799
-6.41E-05,-0.001673185
-6.41E-05,-0.002341958
-6.41E-05,-0.002007572
-6.41E-05,-0.002007572
-6.41E-05,-0.002341958
-6.40E-05,-0.001673185
-6.40E-05,-0.002676345
-6.40E-05,-0.001338799
-6.40E-05,-0.003010732
-6.40E-05,-0.002676345
-6.39E-05,-0.002007572
-6.39E-05,-0.003010732
-6.39E-05,-0.002341958
-6.39E-05,-0.001673185
-6.39E-05,-0.002007572
-6.38E-05,-0.002007572
-6.38E-05,-0.002676345
-6.38E-05,-0.003010732
-6.38E-05,-0.002676345
-6.38E-05,-0.002341958
-6.37E-05,-0.002676345
-6.37E-05,-0.001004412
-6.37E-05,-0.003010732
-6.37E-05,-0.003345118
-6.37E-05,-0.005017052
-6.36E-05,-0.001004412
-6.36E-05,-0.002341958
-6.36E-05,-0.001004412
-6.36E-05,-0.006354598
-6.36E-05,0.001670681
-6.35E-05,-0.002007572
-6.35E-05,-0.004682665
-6.35E-05,-0.003010732
-6.35E-05,0.001336295
-6.35E-05,-0.002676345
-6.34E-05,-0.007023371
-6.34E-05,0.002673841
-6.34E-05,-0.004348278
-6.34E-05,-0.003010732
-6.34E-05,-0.002341958
-6.33E-05,-0.003010732
-6.33E-05,0.000667521
-6.33E-05,-0.004348278
-6.33E-05,-1.25E-06
-6.33E-05,-0.003345118
-6.32E-05,-0.001673185
-6.32E-05,-0.002676345
-6.32E-05,-0.002676345
-6.32E-05,-0.002676345
-6.32E-05,-0.002007572
-6.31E-05,-0.003679505
-6.31E-05,-0.002007572
-6.31E-05,-0.001004412
-6.31E-05,-0.004013892
-6.31E-05,-0.002007572
-6.30E-05,-0.003679505
-6.30E-05,-0.001004412
-6.30E-05,-0.002341958
-6.30E-05,-0.002341958
-6.30E-05,-0.002676345
-6.29E-05,-0.001673185
-6.29E-05,-0.002007572
-6.29E-05,-0.003345118
-6.29E-05,-0.002341958
-6.29E-05,-0.002007572
-6.28E-05,-0.002007572
-6.28E-05,-0.003010732
-6.28E-05,-0.001338799
-6.28E-05,-0.002007572
-6.28E-05,-0.002341958
-6.27E-05,-0.001004412
-6.27E-05,-0.003010732
-6.27E-05,-0.001338799
-6.27E-05,-0.001673185
-6.27E-05,-0.002341958
-6.26E-05,-0.001673185
-6.26E-05,-0.002007572
-6.26E-05,-0.002007572
-6.26E-05,-0.002007572
-6.26E-05,-0.002007572
-6.25E-05,-0.001338799
-6.25E-05,-0.002007572
-6.25E-05,-0.002007572
-6.25E-05,-0.002007572
-6.25E-05,-0.003010732
-6.24E-05,-0.001338799
-6.24E-05,-0.002676345
-6.24E-05,-0.003010732
-6.24E-05,-0.002007572
-6.24E-05,-0.002676345
-6.23E-05,-0.002676345
-6.23E-05,-0.002007572
-6.23E-05,-0.002341958
-6.23E-05,-0.001338799
-6.23E-05,-0.003679505
-6.22E-05,-0.002341958
-6.22E-05,-0.001673185
-6.22E-05,-0.002676345
-6.22E-05,-0.002676345
-6.22E-05,-0.002676345
-6.21E-05,-0.002341958
-6.21E-05,-0.002341958
-6.21E-05,-0.003010732
-6.21E-05,-0.002676345
-6.21E-05,-0.002676345
-6.20E-05,-0.002341958
-6.20E-05,-0.003345118
-6.20E-05,-0.003010732
-6.20E-05,-0.002676345
-6.20E-05,-0.002007572
-6.19E-05,-0.003010732
-6.19E-05,-0.002341958
-6.19E-05,-0.001338799
-6.19E-05,-0.003345118
-6.19E-05,-0.002341958
-6.18E-05,-0.002341958
-6.18E-05,-0.003345118
-6.18E-05,-0.002676345
-6.18E-05,-0.003345118
-6.18E-05,-0.002007572
-6.17E-05,-0.003345118
-6.17E-05,-0.002007572
-6.17E-05,-0.003679505
-6.17E-05,-0.003010732
-6.17E-05,-0.002676345
-6.16E-05,-0.002341958
-6.16E-05,-0.002007572
-6.16E-05,-0.003345118
-6.16E-05,-0.002007572
-6.16E-05,-0.002007572
-6.15E-05,-0.002341958
-6.15E-05,-0.002007572
-6.15E-05,-0.002341958
-6.15E-05,-0.001673185
-6.15E-05,-0.002341958
-6.14E-05,-0.001673185
-6.14E-05,-0.002007572
-6.14E-05,-0.003010732
-6.14E-05,-0.003010732
-6.14E-05,-0.002007572
-6.13E-05,-0.002007572
-6.13E-05,-0.003345118
-6.13E-05,-0.002341958
-6.13E-05,-0.002676345
-6.13E-05,-0.002676345
-6.12E-05,-0.002341958
-6.12E-05,-0.003010732
-6.12E-05,-0.003345118
-6.12E-05,-0.002341958
-6.12E-05,-0.003010732
-6.11E-05,-0.001673185
-6.11E-05,-0.001673185
-6.11E-05,-0.002007572
-6.11E-05,-0.002676345
-6.11E-05,-0.002676345
-6.10E-05,-0.003345118
-6.10E-05,-0.002341958
-6.10E-05,-0.001673185
-6.10E-05,-0.003010732
-6.10E-05,-0.002341958
-6.09E-05,-0.003010732
-6.09E-05,-0.002341958
-6.09E-05,-0.002341958
-6.09E-05,-0.002676345
-6.09E-05,-0.002007572
-6.08E-05,-0.002676345
-6.08E-05,-0.002676345
-6.08E-05,-0.001673185
-6.08E-05,-0.001673185
-6.08E-05,-0.002676345
-6.07E-05,-0.003010732
-6.07E-05,-0.002007572
-6.07E-05,-0.002676345
-6.07E-05,-0.002676345
-6.07E-05,-0.002341958
-6.06E-05,-0.003010732
-6.06E-05,-0.003010732
-6.06E-05,-0.003345118
-6.06E-05,-0.003345118
-6.06E-05,-0.002676345
-6.05E-05,-0.002341958
-6.05E-05,-0.002676345
-6.05E-05,-0.001673185
-6.05E-05,-0.002676345
-6.05E-05,-0.003010732
-6.04E-05,-0.004348278
-6.04E-05,-0.004682665
-6.04E-05,-0.001673185
-6.04E-05,-1.25E-06
-6.04E-05,-0.003345118
-6.03E-05,-0.002341958
-6.03E-05,-0.002676345
-6.03E-05,-0.003679505
-6.03E-05,-0.002676345
-6.03E-05,-0.001673185
-6.02E-05,-0.005017052
-6.02E-05,-0.004013892
-6.02E-05,-0.001004412
-6.02E-05,-0.002676345
-6.02E-05,-0.003345118
-6.01E-05,-0.003010732
-6.01E-05,-0.002007572
-6.01E-05,-0.003345118
-6.01E-05,-0.001673185
-6.01E-05,-0.002341958
-6.00E-05,-0.002341958
-6.00E-05,-0.003010732
-6.00E-05,-0.002341958
-6.00E-05,-0.002341958
-6.00E-05,-0.003679505
-5.99E-05,-0.002341958
-5.99E-05,-0.002676345
-5.99E-05,-0.002341958
-5.99E-05,-0.002676345
-5.99E-05,-0.002676345
-5.98E-05,-0.003010732
-5.98E-05,-0.003345118
-5.98E-05,-0.002007572
-5.98E-05,-0.002341958
-5.98E-05,-0.000670025
-5.97E-05,-0.002676345
-5.97E-05,-0.001338799
-5.97E-05,-0.002676345
-5.97E-05,-0.002676345
-5.97E-05,-0.002341958
-5.96E-05,-0.002676345
-5.96E-05,-0.002676345
-5.96E-05,-0.002341958
-5.96E-05,-0.002341958
-5.96E-05,-0.002007572
-5.95E-05,-0.003010732
-5.95E-05,-0.003010732
-5.95E-05,-0.003345118
-5.95E-05,-0.002007572
-5.95E-05,-0.003010732
-5.94E-05,-0.003345118
-5.94E-05,-0.001673185
-5.94E-05,-0.002676345
-5.94E-05,-0.002676345
-5.94E-05,-0.001338799
-5.93E-05,-0.002676345
-5.93E-05,-0.003010732
-5.93E-05,-0.000670025
-5.93E-05,-0.002676345
-5.93E-05,-0.003345118
-5.92E-05,-0.000670025
-5.92E-05,-0.002341958
-5.92E-05,-0.002007572
-5.92E-05,-0.002007572
-5.92E-05,-0.001004412
-5.91E-05,-0.001004412
-5.91E-05,-0.002007572
-5.91E-05,-0.001338799
-5.91E-05,-0.002007572
-5.91E-05,-0.001673185
-5.90E-05,-0.002007572
-5.90E-05,-0.002676345
-5.90E-05,-0.002676345
-5.90E-05,-0.002007572
-5.90E-05,-0.001673185
-5.89E-05,-0.001673185
-5.89E-05,-0.002007572
-5.89E-05,-0.002007572
-5.89E-05,-0.002676345
-5.89E-05,-0.002341958
-5.88E-05,-0.000670025
-5.88E-05,-0.002007572
-5.88E-05,-0.001004412
-5.88E-05,-0.002007572
-5.88E-05,-0.000670025
-5.87E-05,-0.001338799
-5.87E-05,-0.001338799
-5.87E-05,-0.001673185
-5.87E-05,-0.001673185
-5.87E-05,-0.000670025
-5.86E-05,-0.001673185
-5.86E-05,-0.002007572
-5.86E-05,-0.001673185
-5.86E-05,-0.002007572
-5.86E-05,-0.002007572
-5.85E-05,-0.002676345
-5.85E-05,-0.002007572
-5.85E-05,-0.000335639
-5.85E-05,-0.002341958
-5.85E-05,-0.001004412
-5.84E-05,-0.000670025
-5.84E-05,-0.001004412
-5.84E-05,-0.000670025
-5.84E-05,-0.001673185
-5.84E-05,-0.001673185
-5.83E-05,-0.002341958
-5.83E-05,-0.001673185
-5.83E-05,-0.002676345
-5.83E-05,-0.002007572
-5.83E-05,-0.002007572
-5.82E-05,-0.001673185
-5.82E-05,-0.002007572
-5.82E-05,-0.002007572
-5.82E-05,-0.001338799
-5.82E-05,-0.001004412
-5.81E-05,-0.001338799
-5.81E-05,-0.002007572
-5.81E-05,-0.001673185
-5.81E-05,-0.001673185
-5.81E-05,-0.001004412
-5.80E-05,-0.001673185
-5.80E-05,-0.002007572
-5.80E-05,-0.002007572
-5.80E-05,-0.001338799
-5.80E-05,-0.002676345
-5.79E-05,-0.002341958
-5.79E-05,-0.003010732
-5.79E-05,-0.001004412
-5.79E-05,-0.001338799
-5.79E-05,-0.002341958
-5.78E-05,-0.001673185
-5.78E-05,-0.002676345
-5.78E-05,-0.002007572
-5.78E-05,-0.002007572
-5.78E-05,-0.000670025
-5.77E-05,-0.001338799
-5.77E-05,-0.002007572
-5.77E-05,-0.002341958
-5.77E-05,-0.003010732
-5.77E-05,-0.003679505
-5.76E-05,-0.001673185
-5.76E-05,-0.002341958
-5.76E-05,-0.001338799
-5.76E-05,-0.001673185
-5.76E-05,-0.002341958
-5.75E-05,-0.002007572
-5.75E-05,-0.001338799
-5.75E-05,-0.002341958
-5.75E-05,-0.001673185
-5.75E-05,-0.001004412
-5.74E-05,-0.002341958
-5.74E-05,-0.002341958
-5.74E-05,-0.001673185
-5.74E-05,-0.003010732
-5.74E-05,-0.002007572
-5.73E-05,-0.002341958
-5.73E-05,-0.002007572
-5.73E-05,-0.001338799
-5.73E-05,-0.002341958
-5.73E-05,-0.003010732
-5.72E-05,-0.002341958
-5.72E-05,-0.002341958
-5.72E-05,-0.001338799
-5.72E-05,-0.003345118
-5.72E-05,-0.002007572
-5.71E-05,-0.002007572
-5.71E-05,-0.002341958
-5.71E-05,-0.003345118
-5.71E-05,-0.003345118
-5.71E-05,-0.002676345
-5.70E-05,-0.002676345
-5.70E-05,-0.003679505
-5.70E-05,-0.003345118
-5.70E-05,-0.003345118
-5.70E-05,-0.002676345
-5.69E-05,-0.003345118
-5.69E-05,-0.003345118
-5.69E-05,-0.003010732
-5.69E-05,-0.002007572
-5.69E-05,-0.002676345
-5.68E-05,-0.003010732
-5.68E-05,-0.001338799
-5.68E-05,-0.002007572
-5.68E-05,-0.002341958
-5.68E-05,-0.003679505
-5.67E-05,-0.002341958
-5.67E-05,-0.002676345
-5.67E-05,-0.002341958
-5.67E-05,-0.003010732
-5.67E-05,-0.002676345
-5.66E-05,-0.001673185
-5.66E-05,-0.002676345
-5.66E-05,-0.002676345
-5.66E-05,-0.003679505
-5.66E-05,-0.003345118
-5.65E-05,-0.003010732
-5.65E-05,-0.003345118
-5.65E-05,-0.002676345
-5.65E-05,-0.003345118
-5.65E-05,-0.002676345
-5.64E-05,-0.003010732
-5.64E-05,-0.003345118
-5.64E-05,-0.002341958
-5.64E-05,-0.003010732
-5.64E-05,-0.003010732
-5.63E-05,-0.002007572
-5.63E-05,-0.002341958
-5.63E-05,-0.003345118
-5.63E-05,-0.003679505
-5.63E-05,-0.002676345
-5.62E-05,-0.003010732
-5.62E-05,-0.003345118
-5.62E-05,-0.003010732
-5.62E-05,-0.003010732
-5.62E-05,-0.004013892
-5.61E-05,-0.003345118
-5.61E-05,-0.003345118
-5.61E-05,-0.003010732
-5.61E-05,-0.003010732
-5.61E-05,-0.002341958
-5.60E-05,-0.003345118
-5.60E-05,-0.003679505
-5.60E-05,-0.003345118
-5.60E-05,-0.004348278
-5.60E-05,-0.003679505
-5.59E-05,-0.003345118
-5.59E-05,-0.003345118
-5.59E-05,-0.002341958
-5.59E-05,-0.004348278
-5.59E-05,-0.003679505
-5.58E-05,-0.003010732
-5.58E-05,-0.003010732
-5.58E-05,-0.003010732
-5.58E-05,-0.003010732
-5.58E-05,-0.003679505
-5.57E-05,-0.003345118
-5.57E-05,-0.003010732
-5.57E-05,-0.003679505
-5.57E-05,-0.003679505
-5.57E-05,-0.001673185
-5.56E-05,-0.002676345
-5.56E-05,-0.003345118
-5.56E-05,-0.002676345
-5.56E-05,-0.003010732
-5.56E-05,-0.002676345
-5.55E-05,-0.003010732
-5.55E-05,-0.003010732
-5.55E-05,-0.003345118
-5.55E-05,-0.002676345
-5.55E-05,-0.003010732
-5.54E-05,-0.002676345
-5.54E-05,-0.003010732
-5.54E-05,-0.004013892
-5.54E-05,-0.002007572
-5.54E-05,-0.002007572
-5.53E-05,-0.003679505
-5.53E-05,-0.002341958
-5.53E-05,-0.003679505
-5.53E-05,-0.003010732
-5.53E-05,-0.002676345
-5.52E-05,-0.002676345
-5.52E-05,-0.002007572
-5.52E-05,-0.001673185
-5.52E-05,-0.003679505
-5.52E-05,-0.002341958
-5.51E-05,-0.003345118
-5.51E-05,-0.000670025
-5.51E-05,-0.002341958
-5.51E-05,-0.002341958
-5.51E-05,-0.002676345
-5.50E-05,-0.001673185
-5.50E-05,-0.002676345
-5.50E-05,-0.003010732
-5.50E-05,-0.002676345
-5.50E-05,-0.001673185
-5.49E-05,-0.001673185
-5.49E-05,-0.002007572
-5.49E-05,-0.001004412
-5.49E-05,-0.002676345
-5.49E-05,-0.002341958
-5.48E-05,-0.002007572
-5.48E-05,-0.002007572
-5.48E-05,-0.002341958
-5.48E-05,-0.001673185
-5.48E-05,-0.002007572
-5.47E-05,-0.002341958
-5.47E-05,-0.002341958
-5.47E-05,-0.001673185
-5.47E-05,-0.002341958
-5.47E-05,-0.001673185
-5.46E-05,-0.002007572
-5.46E-05,-0.002341958
-5.46E-05,-0.002341958
-5.46E-05,-0.002341958
-5.46E-05,-0.002341958
-5.45E-05,-0.001673185
-5.45E-05,-0.003010732
-5.45E-05,-0.001673185
-5.45E-05,-0.001673185
-5.45E-05,-0.002676345
-5.44E-05,-0.002676345
-5.44E-05,-0.003345118
-5.44E-05,-0.002007572
-5.44E-05,-0.002341958
-5.44E-05,-0.002676345
-5.43E-05,-0.002676345
-5.43E-05,-0.002341958
-5.43E-05,-0.003679505
-5.43E-05,-0.002341958
-5.43E-05,-0.003010732
-5.42E-05,-0.001673185
-5.42E-05,-0.001004412
-5.42E-05,-0.002007572
-5.42E-05,-0.001673185
-5.42E-05,-0.002007572
-5.41E-05,-0.002676345
-5.41E-05,-0.001673185
-5.41E-05,-0.003010732
-5.41E-05,-0.002007572
-5.41E-05,-0.003010732
-5.40E-05,-0.001338799
-5.40E-05,-0.003679505
-5.40E-05,-0.002676345
-5.40E-05,-0.002007572
-5.40E-05,-0.002676345
-5.39E-05,-0.002007572
-5.39E-05,-0.003345118
-5.39E-05,-0.002341958
-5.39E-05,-0.001338799
-5.39E-05,-0.001673185
-5.38E-05,-0.002676345
-5.38E-05,-0.002676345
-5.38E-05,-0.002007572
-5.38E-05,-0.002676345
-5.38E-05,-0.003010732
-5.37E-05,-0.002341958
-5.37E-05,-0.002676345
-5.37E-05,-0.002007572
-5.37E-05,-0.002341958
-5.37E-05,-0.002007572
-5.36E-05,-0.002341958
-5.36E-05,-0.002676345
-5.36E-05,-0.002676345
-5.36E-05,-0.002676345
-5.36E-05,-0.001673185
-5.35E-05,-0.003010732
-5.35E-05,-0.002007572
-5.35E-05,-0.002676345
-5.35E-05,-0.003679505
-5.35E-05,-0.002007572
-5.34E-05,-0.001673185
-5.34E-05,-0.002676345
-5.34E-05,-0.002007572
-5.34E-05,-0.002676345
-5.34E-05,-0.002341958
-5.33E-05,-0.001338799
-5.33E-05,-0.002007572
-5.33E-05,-0.001673185
-5.33E-05,-0.000670025
-5.33E-05,-0.003010732
-5.32E-05,-0.003345118
-5.32E-05,-0.002676345
-5.32E-05,-0.002007572
-5.32E-05,-0.003345118
-5.32E-05,-0.003679505
-5.31E-05,-0.002341958
-5.31E-05,-0.002341958
-5.31E-05,-0.002341958
-5.31E-05,-0.001673185
-5.31E-05,-0.002676345
-5.30E-05,-0.002341958
-5.30E-05,-0.002341958
-5.30E-05,-0.002007572
-5.30E-05,-0.002676345
-5.30E-05,-0.002676345
-5.29E-05,-0.001673185
-5.29E-05,-0.002007572
-5.29E-05,-0.002007572
-5.29E-05,-0.002341958
-5.29E-05,-0.003679505
-5.28E-05,-0.003010732
-5.28E-05,-0.001338799
-5.28E-05,-0.002341958
-5.28E-05,-0.001338799
-5.28E-05,-0.002676345
-5.27E-05,-0.002676345
-5.27E-05,-0.002676345
-5.27E-05,-0.001673185
-5.27E-05,-0.002007572
-5.27E-05,-0.001673185
-5.26E-05,-0.002341958
-5.26E-05,-0.001673185
-5.26E-05,-0.002007572
-5.26E-05,-0.002341958
-5.26E-05,-0.002676345
-5.25E-05,-0.003010732
-5.25E-05,-0.003010732
-5.25E-05,-0.002341958
-5.25E-05,-0.002341958
-5.25E-05,-0.002676345
-5.24E-05,-0.002676345
-5.24E-05,-0.002341958
-5.24E-05,-0.001673185
-5.24E-05,-0.002676345
-5.24E-05,-0.001673185
-5.23E-05,-0.001673185
-5.23E-05,-0.002341958
-5.23E-05,-0.002341958
-5.23E-05,-0.002007572
-5.23E-05,-0.002341958
-5.22E-05,-0.002341958
-5.22E-05,-0.002007572
-5.22E-05,-0.001338799
-5.22E-05,-0.002341958
-5.22E-05,-0.001673185
-5.21E-05,-0.002676345
-5.21E-05,-0.001673185
-5.21E-05,-0.002007572
-5.21E-05,-0.001673185
-5.21E-05,-0.002341958
-5.20E-05,-0.003010732
-5.20E-05,-0.002676345
-5.20E-05,-0.003345118
-5.20E-05,-0.003345118
-5.20E-05,-0.003679505
-5.19E-05,-0.003345118
-5.19E-05,-0.002676345
-5.19E-05,-0.003345118
-5.19E-05,-0.002341958
-5.19E-05,-0.002007572
-5.18E-05,-0.001673185
-5.18E-05,-0.001338799
-5.18E-05,-0.001673185
-5.18E-05,-0.002007572
-5.18E-05,-0.003679505
-5.17E-05,-0.003010732
-5.17E-05,-0.002341958
-5.17E-05,-0.002676345
-5.17E-05,-0.003345118
-5.17E-05,-0.002341958
-5.16E-05,-0.003345118
-5.16E-05,-0.002676345
-5.16E-05,-0.002676345
-5.16E-05,-0.003010732
-5.16E-05,-0.002676345
-5.15E-05,-0.002341958
-5.15E-05,-0.002676345
-5.15E-05,-0.003010732
-5.15E-05,-0.003679505
-5.15E-05,-0.002341958
-5.14E-05,-0.003010732
-5.14E-05,-0.002341958
-5.14E-05,-0.001673185
-5.14E-05,-0.002341958
-5.14E-05,-0.002341958
-5.13E-05,-0.004013892
-5.13E-05,-0.002007572
-5.13E-05,-0.002676345
-5.13E-05,-0.002341958
-5.13E-05,-0.001338799
-5.12E-05,-0.002676345
-5.12E-05,-0.003010732
-5.12E-05,-0.003010732
-5.12E-05,-0.002676345
-5.12E-05,-0.002341958
-5.11E-05,-0.002007572
-5.11E-05,-0.003345118
-5.11E-05,-0.002007572
-5.11E-05,-0.002676345
-5.11E-05,-0.002341958
-5.10E-05,-0.002007572
-5.10E-05,-0.001673185
-5.10E-05,-0.002341958
-5.10E-05,-0.004013892
-5.10E-05,-0.003010732
-5.09E-05,-0.002007572
-5.09E-05,-0.002341958
-5.09E-05,-0.002676345
-5.09E-05,-0.002341958
-5.09E-05,-0.002676345
-5.08E-05,-0.002007572
-5.08E-05,-0.003010732
-5.08E-05,-0.003010732
-5.08E-05,-0.003345118
-5.08E-05,-0.002676345
-5.07E-05,-0.002676345
-5.07E-05,-0.002676345
-5.07E-05,-0.002341958
-5.07E-05,-0.002676345
-5.07E-05,-0.003679505
-5.06E-05,-0.001673185
-5.06E-05,-0.002341958
-5.06E-05,-0.003345118
-5.06E-05,-0.002341958
-5.06E-05,-0.002676345
-5.05E-05,-0.002676345
-5.05E-05,-0.002007572
-5.05E-05,-0.002007572
-5.05E-05,-0.002007572
-5.05E-05,-0.003010732
-5.04E-05,-0.003010732
-5.04E-05,-0.003345118
-5.04E-05,-0.002341958
-5.04E-05,-0.002341958
-5.04E-05,-0.002341958
-5.03E-05,-0.003010732
-5.03E-05,-0.001673185
-5.03E-05,-0.001004412
-5.03E-05,-0.001673185
-5.03E-05,-0.001673185
-5.02E-05,-0.002341958
-5.02E-05,-0.001673185
-5.02E-05,-0.002676345
-5.02E-05,-0.003679505
-5.02E-05,-0.001673185
-5.01E-05,-0.002007572
-5.01E-05,-0.003345118
-5.01E-05,-0.002007572
-5.01E-05,-0.002341958
-5.01E-05,-0.001673185
-5.00E-05,-0.001673185
-5.00E-05,-0.001673185
-5.00E-05,-0.001673185
-5.00E-05,-0.003010732
-5.00E-05,-0.002676345
-4.99E-05,-0.001338799
-4.99E-05,-0.002341958
-4.99E-05,-0.002341958
-4.99E-05,-0.001673185
-4.99E-05,-0.002007572
-4.98E-05,-0.001338799
-4.98E-05,-0.002341958
-4.98E-05,-0.001338799
-4.98E-05,-0.000670025
-4.98E-05,-0.001338799
-4.97E-05,-0.002341958
-4.97E-05,-0.002007572
-4.97E-05,-0.001673185
-4.97E-05,-0.001338799
-4.97E-05,-0.000670025
-4.96E-05,-0.001004412
-4.96E-05,-0.001673185
-4.96E-05,-0.001673185
-4.96E-05,-0.002341958
-4.96E-05,-0.002007572
-4.95E-05,-0.001338799
-4.95E-05,-0.002007572
-4.95E-05,-0.001004412
-4.95E-05,-0.001673185
-4.95E-05,-0.001338799
-4.94E-05,-0.003010732
-4.94E-05,-0.001338799
-4.94E-05,-0.002007572
-4.94E-05,-0.002007572
-4.94E-05,-0.002007572
-4.93E-05,-0.001673185
-4.93E-05,-0.001004412
-4.93E-05,-0.002007572
-4.93E-05,-0.002007572
-4.93E-05,-0.001338799
-4.92E-05,-0.001004412
-4.92E-05,-0.002676345
-4.92E-05,-0.000335639
-4.92E-05,-0.001673185
-4.92E-05,-0.002676345
-4.91E-05,-0.001338799
-4.91E-05,-0.001338799
-4.91E-05,-0.002007572
-4.91E-05,-0.001338799
-4.91E-05,-0.001673185
-4.90E-05,-0.001673185
-4.90E-05,-0.002341958
-4.90E-05,-0.001338799
-4.90E-05,-0.001004412
-4.90E-05,-0.001673185
-4.89E-05,-0.001673185
-4.89E-05,-0.001004412
-4.89E-05,-0.001004412
-4.89E-05,-0.001004412
-4.89E-05,-0.001338799
-4.88E-05,-0.000670025
-4.88E-05,-0.001338799
-4.88E-05,-0.001004412
-4.88E-05,-0.000335639
-4.88E-05,-0.001673185
-4.87E-05,-0.001673185
-4.87E-05,-0.001673185
-4.87E-05,-0.002007572
-4.87E-05,-0.001673185
-4.87E-05,-0.002676345
-4.86E-05,-0.002007572
-4.86E-05,-0.002341958
-4.86E-05,-0.002341958
-4.86E-05,-0.001673185
-4.86E-05,-0.001673185
-4.85E-05,-0.001338799
-4.85E-05,-0.001004412
-4.85E-05,-0.002007572
-4.85E-05,-0.001673185
-4.85E-05,-0.000670025
-4.84E-05,-0.001673185
-4.84E-05,-0.002007572
-4.84E-05,-0.001338799
-4.84E-05,-0.001338799
-4.84E-05,-0.001338799
-4.83E-05,-0.001338799
-4.83E-05,-0.001004412
-4.83E-05,-0.001338799
-4.83E-05,-0.002341958
-4.83E-05,-0.001673185
-4.82E-05,-0.002341958
-4.82E-05,-0.000670025
-4.82E-05,-0.002007572
-4.82E-05,-0.002007572
-4.82E-05,-0.001673185
-4.81E-05,-0.002007572
-4.81E-05,-0.001673185
-4.81E-05,-0.002341958
-4.81E-05,-0.003345118
-4.81E-05,-0.002341958
-4.80E-05,-0.002007572
-4.80E-05,-0.001338799
-4.80E-05,-0.002676345
-4.80E-05,-0.002676345
-4.80E-05,-0.001338799
-4.79E-05,-0.001673185
-4.79E-05,-0.003679505
-4.79E-05,-0.000670025
-4.79E-05,-0.002676345
-4.79E-05,-0.001673185
-4.78E-05,-0.001338799
-4.78E-05,-0.003010732
-4.78E-05,-0.001673185
-4.78E-05,-0.001338799
-4.78E-05,-0.001338799
-4.77E-05,-0.001338799
-4.77E-05,-0.001673185
-4.77E-05,-0.002676345
-4.77E-05,-0.002007572
-4.77E-05,-0.002341958
-4.76E-05,-0.001673185
-4.76E-05,-0.001673185
-4.76E-05,-0.002676345
-4.76E-05,-0.002341958
-4.76E-05,-0.002007572
-4.75E-05,-0.002341958
-4.75E-05,-0.002007572
-4.75E-05,-0.003010732
-4.75E-05,-0.001338799
-4.75E-05,-0.002676345
-4.74E-05,-0.002007572
-4.74E-05,-0.002676345
-4.74E-05,-0.001338799
-4.74E-05,-0.002676345
-4.74E-05,-0.002676345
-4.73E-05,-0.002676345
-4.73E-05,-0.001673185
-4.73E-05,-0.002676345
-4.73E-05,-0.002007572
-4.73E-05,-0.002007572
-4.72E-05,-0.001338799
-4.72E-05,-0.001673185
-4.72E-05,-0.002007572
-4.72E-05,-0.002341958
-4.72E-05,-0.002676345
-4.71E-05,-0.002676345
-4.71E-05,-0.001338799
-4.71E-05,-0.003010732
-4.71E-05,-0.002007572
-4.71E-05,-0.003010732
-4.70E-05,-0.003010732
-4.70E-05,-0.001673185
-4.70E-05,-0.002341958
-4.70E-05,-0.002341958
-4.70E-05,-0.002341958
-4.69E-05,-0.002007572
-4.69E-05,-0.001673185
-4.69E-05,-0.002341958
-4.69E-05,-0.004013892
-4.69E-05,-0.002007572
-4.68E-05,-0.003010732
-4.68E-05,-0.002341958
-4.68E-05,-0.001673185
-4.68E-05,-0.002676345
-4.68E-05,-0.002341958
-4.67E-05,-0.002676345
-4.67E-05,-0.001673185
-4.67E-05,-0.002007572
-4.67E-05,-0.002676345
-4.67E-05,-0.002007572
-4.66E-05,-0.001673185
-4.66E-05,-0.001338799
-4.66E-05,-0.002341958
-4.66E-05,-0.002341958
-4.66E-05,-0.001673185
-4.65E-05,-0.002341958
-4.65E-05,-0.002341958
-4.65E-05,-0.002341958
-4.65E-05,-0.001673185
-4.65E-05,-0.002007572
-4.64E-05,-0.002676345
-4.64E-05,-0.002341958
-4.64E-05,-0.002676345
-4.64E-05,-0.001004412
-4.64E-05,-0.003010732
-4.63E-05,-0.002341958
-4.63E-05,-0.003345118
-4.63E-05,-0.002007572
-4.63E-05,-0.001673185
-4.63E-05,-0.001673185
-4.62E-05,-0.002341958
-4.62E-05,-0.003010732
-4.62E-05,-0.002007572
-4.62E-05,-0.002007572
-4.62E-05,-0.003679505
-4.61E-05,-0.001338799
-4.61E-05,-0.003010732
-4.61E-05,-0.002676345
-4.61E-05,-0.002341958
-4.61E-05,-0.002676345
-4.60E-05,-0.002007572
-4.60E-05,-0.001673185
-4.60E-05,-0.002007572
-4.60E-05,-0.002007572
-4.60E-05,-0.002007572
-4.59E-05,-0.003010732
-4.59E-05,-0.002007572
-4.59E-05,-0.002341958
-4.59E-05,-0.002007572
-4.59E-05,-0.001673185
-4.58E-05,-0.002341958
-4.58E-05,-0.002341958
-4.58E-05,-0.002676345
-4.58E-05,-0.002676345
-4.58E-05,-0.003010732
-4.57E-05,-0.003010732
-4.57E-05,-0.002341958
-4.57E-05,-0.002676345
-4.57E-05,-0.001673185
-4.57E-05,-0.002341958
-4.56E-05,-0.002341958
-4.56E-05,-0.001338799
-4.56E-05,-0.002341958
-4.56E-05,-0.002676345
-4.56E-05,-0.002676345
-4.55E-05,-0.003679505
-4.55E-05,-0.002341958
-4.55E-05,-0.002007572
-4.55E-05,-0.003010732
-4.55E-05,-0.002341958
-4.54E-05,-0.002007572
-4.54E-05,-0.003010732
-4.54E-05,-0.002676345
-4.54E-05,-0.002341958
-4.54E-05,-0.002341958
-4.53E-05,-0.003345118
-4.53E-05,-0.002676345
-4.53E-05,-0.003010732
-4.53E-05,-0.002676345
-4.53E-05,-0.002676345
-4.52E-05,-0.003345118
-4.52E-05,-0.002341958
-4.52E-05,-0.003010732
-4.52E-05,-0.003679505
-4.52E-05,-0.002676345
-4.51E-05,-0.003345118
-4.51E-05,-0.002676345
-4.51E-05,-0.002007572
-4.51E-05,-0.004013892
-4.51E-05,-0.004682665
-4.50E-05,-0.003345118
-4.50E-05,-0.002341958
-4.50E-05,-0.002676345
-4.50E-05,-0.002676345
-4.50E-05,-0.003010732
-4.49E-05,-0.003345118
-4.49E-05,-0.004013892
-4.49E-05,-0.003679505
-4.49E-05,-0.003010732
-4.49E-05,-0.003010732
-4.48E-05,-0.003010732
-4.48E-05,-0.003010732
-4.48E-05,-0.003679505
-4.48E-05,-0.003679505
-4.48E-05,-0.003010732
-4.47E-05,-0.001673185
-4.47E-05,-0.002007572
-4.47E-05,-0.002341958
-4.47E-05,-0.002341958
-4.47E-05,-0.002341958
-4.46E-05,-0.002341958
-4.46E-05,-0.003010732
-4.46E-05,-0.003345118
-4.46E-05,-0.003345118
-4.46E-05,-0.001673185
-4.45E-05,-0.002341958
-4.45E-05,-0.003010732
-4.45E-05,-0.002007572
-4.45E-05,-0.002676345
-4.45E-05,-0.002676345
-4.44E-05,-0.003010732
-4.44E-05,-0.002676345
-4.44E-05,-0.001338799
-4.44E-05,-0.003679505
-4.44E-05,-0.003345118
-4.43E-05,-0.001673185
-4.43E-05,-0.002341958
-4.43E-05,-0.002341958
-4.43E-05,-0.002341958
-4.43E-05,-0.001338799
-4.42E-05,-0.001673185
-4.42E-05,-0.002007572
-4.42E-05,-0.003345118
-4.42E-05,-0.003345118
-4.42E-05,-0.002676345
-4.41E-05,-0.001338799
-4.41E-05,-0.003010732
-4.41E-05,-0.003679505
-4.41E-05,-0.002341958
-4.41E-05,-0.002676345
-4.40E-05,-0.002676345
-4.40E-05,-0.003010732
-4.40E-05,-0.002341958
-4.40E-05,-0.003010732
-4.40E-05,-0.001338799
-4.39E-05,-0.002341958
-4.39E-05,-0.003010732
-4.39E-05,-0.002007572
-4.39E-05,-0.002007572
-4.39E-05,-0.001673185
-4.38E-05,-0.003010732
-4.38E-05,-0.002676345
-4.38E-05,-0.002676345
-4.38E-05,-0.002341958
-4.38E-05,-0.003345118
-4.37E-05,-0.001673185
-4.37E-05,-0.001673185
-4.37E-05,-0.002007572
-4.37E-05,-0.002676345
-4.37E-05,-0.002676345
-4.36E-05,-0.002676345
-4.36E-05,-0.003345118
-4.36E-05,-0.003010732
-4.36E-05,-0.003010732
-4.36E-05,-0.003010732
-4.35E-05,-0.002007572
-4.35E-05,-0.003679505
-4.35E-05,-0.002341958
-4.35E-05,-0.002676345
-4.35E-05,-0.003010732
-4.34E-05,-0.002007572
-4.34E-05,-0.002341958
-4.34E-05,-0.002676345
-4.34E-05,-0.002341958
-4.34E-05,-0.003010732
-4.33E-05,-0.001338799
-4.33E-05,-0.002341958
-4.33E-05,-0.002676345
-4.33E-05,-0.002676345
-4.33E-05,-0.003345118
-4.32E-05,-0.002676345
-4.32E-05,-0.002341958
-4.32E-05,-0.002341958
-4.32E-05,-0.001338799
-4.32E-05,-0.002676345
-4.31E-05,-0.001673185
-4.31E-05,-0.002676345
-4.31E-05,-0.002341958
-4.31E-05,-0.001004412
-4.31E-05,-0.001673185
-4.30E-05,-0.002007572
-4.30E-05,-0.002007572
-4.30E-05,-0.002676345
-4.30E-05,-0.002341958
-4.30E-05,-0.002341958
-4.29E-05,-0.002007572
-4.29E-05,-0.002341958
-4.29E-05,-0.002341958
-4.29E-05,-0.002007572
-4.29E-05,-0.001673185
-4.28E-05,-0.003679505
-4.28E-05,-0.003010732
-4.28E-05,-0.002341958
-4.28E-05,-0.002341958
-4.28E-05,-0.001673185
-4.27E-05,-0.002676345
-4.27E-05,-0.002341958
-4.27E-05,-0.001673185
-4.27E-05,-0.002676345
-4.27E-05,-0.002341958
-4.26E-05,-0.002341958
-4.26E-05,-0.002007572
-4.26E-05,-0.002007572
-4.26E-05,-0.001673185
-4.26E-05,-0.001673185
-4.25E-05,-0.002341958
-4.25E-05,-0.002341958
-4.25E-05,-0.002341958
-4.25E-05,-0.001673185
-4.25E-05,-0.002007572
-4.24E-05,-0.002341958
-4.24E-05,-0.002341958
-4.24E-05,-0.001004412
-4.24E-05,-0.001338799
-4.24E-05,-0.002341958
-4.23E-05,-0.001338799
-4.23E-05,-0.000670025
-4.23E-05,-0.002007572
-4.23E-05,-0.002341958
-4.23E-05,-0.001338799
-4.22E-05,-0.001673185
-4.22E-05,-0.001673185
-4.22E-05,-0.001004412
-4.22E-05,-0.001004412
-4.22E-05,0.000667521
-4.21E-05,-0.001673185
-4.21E-05,-0.002341958
-4.21E-05,-0.002676345
-4.21E-05,-0.002341958
-4.21E-05,-0.002341958
-4.20E-05,-0.001338799
-4.20E-05,-0.001673185
-4.20E-05,-0.003010732
-4.20E-05,-0.002007572
-4.20E-05,-0.002007572
-4.19E-05,-0.001338799
-4.19E-05,-0.002341958
-4.19E-05,-0.002007572
-4.19E-05,-0.001004412
-4.19E-05,-0.001338799
-4.18E-05,-0.002341958
-4.18E-05,-0.002341958
-4.18E-05,-0.002007572
-4.18E-05,-0.003010732
-4.18E-05,-0.001673185
-4.17E-05,-1.25E-06
-4.17E-05,-0.003010732
-4.17E-05,-0.002676345
-4.17E-05,-0.001338799
-4.17E-05,-0.001673185
-4.16E-05,-0.002341958
-4.16E-05,-0.002341958
-4.16E-05,-1.25E-06
-4.16E-05,-0.001004412
-4.16E-05,-0.001673185
-4.15E-05,-0.002341958
-4.15E-05,-0.002676345
-4.15E-05,-0.002341958
-4.15E-05,-0.001004412
-4.15E-05,-0.001673185
-4.14E-05,-0.001004412
-4.14E-05,-0.002341958
-4.14E-05,-0.002007572
-4.14E-05,-0.001338799
-4.14E-05,-0.002341958
-4.13E-05,-0.001338799
-4.13E-05,-0.002341958
-4.13E-05,-0.002007572
-4.13E-05,-0.003010732
-4.13E-05,-0.003010732
-4.12E-05,-0.002007572
-4.12E-05,-0.002007572
-4.12E-05,-0.002341958
-4.12E-05,-0.001673185
-4.12E-05,-0.001673185
-4.11E-05,-0.002341958
-4.11E-05,-0.002341958
-4.11E-05,-0.002007572
-4.11E-05,-0.002676345
-4.11E-05,-0.002341958
-4.10E-05,-0.002676345
-4.10E-05,-0.003345118
-4.10E-05,-0.002341958
-4.10E-05,-0.002341958
-4.10E-05,-0.003010732
-4.09E-05,-0.002676345
-4.09E-05,-0.003010732
-4.09E-05,-0.002676345
-4.09E-05,-0.003345118
-4.09E-05,-0.002676345
-4.08E-05,-0.003010732
-4.08E-05,-0.002341958
-4.08E-05,-0.002676345
-4.08E-05,-0.002007572
-4.08E-05,-0.002341958
-4.07E-05,-0.003010732
-4.07E-05,-0.003679505
-4.07E-05,-0.003345118
-4.07E-05,-0.003345118
-4.07E-05,-0.002676345
-4.06E-05,-0.002676345
-4.06E-05,-0.004013892
-4.06E-05,-0.003345118
-4.06E-05,-0.003010732
-4.06E-05,-0.002341958
-4.05E-05,-0.003679505
-4.05E-05,-0.002007572
-4.05E-05,-0.003345118
-4.05E-05,-0.002341958
-4.05E-05,-0.002341958
-4.04E-05,-0.002341958
-4.04E-05,-0.002007572
-4.04E-05,-0.001673185
-4.04E-05,-0.003010732
-4.04E-05,-0.002007572
-4.03E-05,-0.002341958
-4.03E-05,-0.003345118
-4.03E-05,-0.003679505
-4.03E-05,-0.004013892
-4.03E-05,-0.002341958
-4.02E-05,-0.002007572
-4.02E-05,-0.003010732
-4.02E-05,-0.003010732
-4.02E-05,-0.002341958
-4.02E-05,-0.003010732
-4.01E-05,-0.002341958
-4.01E-05,-0.003010732
-4.01E-05,-0.002676345
-4.01E-05,-0.002676345
-4.01E-05,-0.002341958
-4.00E-05,-0.002341958
-4.00E-05,-0.002007572
-4.00E-05,-0.003345118
-4.00E-05,-0.002341958
-4.00E-05,-0.003345118
-3.99E-05,-0.002341958
-3.99E-05,-0.002341958
-3.99E-05,-0.002676345
-3.99E-05,-0.002007572
-3.99E-05,-0.002007572
-3.98E-05,-0.003010732
-3.98E-05,-0.003679505
-3.98E-05,-0.001673185
-3.98E-05,-0.002676345
-3.98E-05,-0.002007572
-3.97E-05,-0.002007572
-3.97E-05,-0.002676345
-3.97E-05,-0.002341958
-3.97E-05,-0.002676345
-3.97E-05,-0.002676345
-3.96E-05,-0.001338799
-3.96E-05,-0.001004412
-3.96E-05,-0.003010732
-3.96E-05,-0.001673185
-3.96E-05,-0.002341958
-3.95E-05,-0.002007572
-3.95E-05,-0.001673185
-3.95E-05,-0.001673185
-3.95E-05,-0.002341958
-3.95E-05,-0.002341958
-3.94E-05,-0.003010732
-3.94E-05,-0.002341958
-3.94E-05,-0.002676345
-3.94E-05,-0.002007572
-3.94E-05,-0.002341958
-3.93E-05,-0.001673185
-3.93E-05,-0.003010732
-3.93E-05,-0.003679505
-3.93E-05,-0.002341958
-3.93E-05,-0.001673185
-3.92E-05,-0.002676345
-3.92E-05,-0.003010732
-3.92E-05,-0.001338799
-3.92E-05,-0.003010732
-3.92E-05,-0.002007572
-3.91E-05,-0.002676345
-3.91E-05,-0.002676345
-3.91E-05,-0.002341958
-3.91E-05,-0.001004412
-3.91E-05,-0.001673185
-3.90E-05,-0.003345118
-3.90E-05,-0.002676345
-3.90E-05,-0.002676345
-3.90E-05,-0.002676345
-3.90E-05,-0.002676345
-3.89E-05,-0.002007572
-3.89E-05,-0.001673185
-3.89E-05,-0.002007572
-3.89E-05,-0.002676345
-3.89E-05,-0.001673185
-3.88E-05,-0.002007572
-3.88E-05,-0.002007572
-3.88E-05,-0.001338799
-3.88E-05,-0.003345118
-3.88E-05,-0.002007572
-3.87E-05,-0.001673185
-3.87E-05,-0.001673185
-3.87E-05,-0.001673185
-3.87E-05,-0.001673185
-3.87E-05,-0.001004412
-3.86E-05,-0.000670025
-3.86E-05,-0.001338799
-3.86E-05,-0.002341958
-3.86E-05,-0.002676345
-3.86E-05,-0.001673185
-3.85E-05,-0.003010732
-3.85E-05,-0.003010732
-3.85E-05,-0.001673185
-3.85E-05,-0.003010732
-3.85E-05,-0.002341958
-3.84E-05,-0.001673185
-3.84E-05,-0.001673185
-3.84E-05,-0.002341958
-3.84E-05,-0.001338799
-3.84E-05,-0.003010732
-3.83E-05,-0.002341958
-3.83E-05,-0.002676345
-3.83E-05,-0.002007572
-3.83E-05,-0.002676345
-3.83E-05,-0.002341958
-3.82E-05,-0.003010732
-3.82E-05,-0.003345118
-3.82E-05,-0.002676345
-3.82E-05,-0.002007572
-3.82E-05,-0.002341958
-3.81E-05,-0.002676345
-3.81E-05,-0.003345118
-3.81E-05,-0.002007572
-3.81E-05,-0.002341958
-3.81E-05,-0.002341958
-3.80E-05,-0.002341958
-3.80E-05,-0.002341958
-3.80E-05,-0.001338799
-3.80E-05,-0.002341958
-3.80E-05,-0.002007572
-3.79E-05,-0.003679505
-3.79E-05,-0.003345118
-3.79E-05,-0.003010732
-3.79E-05,-0.002341958
-3.79E-05,-0.002676345
-3.78E-05,-0.003010732
-3.78E-05,-0.003345118
-3.78E-05,-0.002341958
-3.78E-05,-0.002341958
-3.78E-05,-0.003010732
-3.77E-05,-0.002341958
-3.77E-05,-0.002341958
-3.77E-05,-0.003010732
-3.77E-05,-0.002007572
-3.77E-05,-0.002341958
-3.76E-05,-0.003010732
-3.76E-05,-0.002341958
-3.76E-05,-0.001673185
-3.76E-05,-0.002341958
-3.76E-05,-0.002341958
-3.75E-05,-0.003010732
-3.75E-05,-0.002341958
-3.75E-05,-0.002676345
-3.75E-05,-0.002341958
-3.75E-05,-0.004348278
-3.74E-05,-0.003010732
-3.74E-05,-0.002676345
-3.74E-05,-0.003679505
-3.74E-05,-0.003345118
-3.74E-05,-0.001338799
-3.73E-05,-0.003010732
-3.73E-05,-0.002007572
-3.73E-05,-0.002676345
-3.73E-05,-0.002676345
-3.73E-05,-0.003679505
-3.72E-05,-0.002007572
-3.72E-05,-0.004013892
-3.72E-05,-0.003010732
-3.72E-05,-0.001673185
-3.72E-05,-0.001673185
-3.71E-05,-0.002341958
-3.71E-05,-0.002007572
-3.71E-05,-0.002341958
-3.71E-05,-0.003345118
-3.71E-05,-0.003345118
-3.70E-05,-0.002676345
-3.70E-05,-0.003010732
-3.70E-05,-0.001673185
-3.70E-05,-0.002676345
-3.70E-05,-0.003345118
-3.69E-05,-0.003679505
-3.69E-05,-0.002676345
-3.69E-05,-0.003010732
-3.69E-05,-0.002007572
-3.69E-05,-0.002676345
-3.68E-05,-0.002676345
-3.68E-05,-0.002341958
-3.68E-05,-0.001338799
-3.68E-05,-0.002341958
-3.68E-05,-0.002676345
-3.67E-05,-0.002676345
-3.67E-05,-0.002676345
-3.67E-05,-0.001338799
-3.67E-05,-0.002676345
-3.67E-05,-0.002676345
-3.66E-05,-0.002341958
-3.66E-05,-0.001004412
-3.66E-05,-0.001004412
-3.66E-05,-0.002007572
-3.66E-05,-0.001338799
-3.65E-05,-0.002676345
-3.65E-05,-0.002676345
-3.65E-05,-0.002341958
-3.65E-05,-0.003345118
-3.65E-05,-0.003010732
-3.64E-05,-0.001673185
-3.64E-05,-0.002676345
-3.64E-05,-0.002007572
-3.64E-05,-0.001673185
-3.64E-05,-0.002007572
-3.63E-05,-0.002676345
-3.63E-05,-0.002676345
-3.63E-05,-0.001673185
-3.63E-05,-0.002341958
-3.63E-05,-0.002676345
-3.62E-05,-0.001673185
-3.62E-05,-0.002676345
-3.62E-05,-0.002341958
-3.62E-05,-0.003010732
-3.62E-05,-0.001673185
-3.61E-05,-0.002341958
-3.61E-05,-0.000335639
-3.61E-05,-0.002341958
-3.61E-05,-0.001673185
-3.61E-05,-0.002676345
-3.60E-05,-0.002676345
-3.60E-05,-0.001338799
-3.60E-05,-0.002676345
-3.60E-05,-0.002007572
-3.60E-05,-0.001673185
-3.59E-05,-0.002341958
-3.59E-05,-0.002341958
-3.59E-05,-0.002676345
-3.59E-05,-0.001673185
-3.59E-05,-0.002007572
-3.58E-05,-0.002676345
-3.58E-05,-0.001338799
-3.58E-05,-0.001004412
-3.58E-05,-0.001673185
-3.58E-05,-0.002007572
-3.57E-05,-0.002007572
-3.57E-05,-0.002341958
-3.57E-05,-0.001673185
-3.57E-05,-0.002007572
-3.57E-05,-0.002676345
-3.56E-05,-0.001338799
-3.56E-05,-0.001673185
-3.56E-05,-0.001673185
-3.56E-05,-0.002007572
-3.56E-05,-0.001673185
-3.55E-05,-0.001004412
-3.55E-05,-0.002007572
-3.55E-05,-0.002676345
-3.55E-05,-0.002341958
-3.55E-05,-0.002341958
-3.54E-05,-0.002341958
-3.54E-05,-0.002341958
-3.54E-05,-0.002341958
-3.54E-05,-0.001673185
-3.54E-05,-0.002007572
-3.53E-05,-0.001338799
-3.53E-05,-0.002341958
-3.53E-05,-0.001673185
-3.53E-05,-0.001338799
-3.53E-05,-0.002676345
-3.52E-05,-0.002676345
-3.52E-05,-0.002007572
-3.52E-05,-0.002007572
-3.52E-05,-0.002007572
-3.52E-05,-0.002007572
-3.51E-05,-0.003010732
-3.51E-05,-0.001338799
-3.51E-05,-0.003010732
-3.51E-05,-0.001673185
-3.51E-05,-0.002341958
-3.50E-05,-0.002341958
-3.50E-05,-0.003345118
-3.50E-05,-0.001673185
-3.50E-05,-0.001673185
-3.50E-05,-0.001338799
-3.49E-05,-0.002007572
-3.49E-05,-0.003345118
-3.49E-05,-0.003010732
-3.49E-05,-0.001338799
-3.49E-05,-0.002341958
-3.48E-05,-0.001673185
-3.48E-05,-0.002676345
-3.48E-05,-0.003345118
-3.48E-05,-0.002007572
-3.48E-05,-0.002341958
-3.47E-05,-0.002676345
-3.47E-05,-0.003010732
-3.47E-05,-0.001338799
-3.47E-05,-0.001338799
-3.47E-05,-0.003010732
-3.46E-05,-0.002676345
-3.46E-05,-0.003010732
-3.46E-05,-0.003010732
-3.46E-05,-0.002341958
-3.46E-05,-0.003010732
-3.45E-05,-0.002007572
-3.45E-05,-0.001673185
-3.45E-05,-0.002341958
-3.45E-05,-0.002341958
-3.45E-05,-0.002341958
-3.44E-05,-0.002007572
-3.44E-05,-0.002676345
-3.44E-05,-0.002676345
-3.44E-05,-0.002007572
-3.44E-05,-0.004013892
-3.43E-05,-0.002341958
-3.43E-05,-0.003345118
-3.43E-05,-0.002676345
-3.43E-05,-0.002341958
-3.43E-05,-0.003010732
-3.42E-05,-0.002007572
-3.42E-05,-0.002341958
-3.42E-05,-0.003345118
-3.42E-05,-0.003010732
-3.42E-05,-0.002676345
-3.41E-05,-0.002341958
-3.41E-05,-0.003010732
-3.41E-05,-0.002007572
-3.41E-05,-0.002007572
-3.41E-05,-0.003345118
-3.40E-05,-0.003345118
-3.40E-05,-0.001673185
-3.40E-05,-0.002676345
-3.40E-05,-0.001338799
-3.40E-05,-0.002676345
-3.39E-05,-0.002007572
-3.39E-05,-0.002676345
-3.39E-05,-0.002341958
-3.39E-05,-0.002676345
-3.39E-05,-0.002341958
-3.38E-05,-0.003010732
-3.38E-05,-0.002341958
-3.38E-05,-0.002676345
-3.38E-05,-0.003010732
-3.38E-05,-0.003010732
-3.37E-05,-0.003345118
-3.37E-05,-0.002341958
-3.37E-05,-0.002676345
-3.37E-05,-0.002676345
-3.37E-05,-0.003345118
-3.36E-05,-0.003010732
-3.36E-05,-0.003345118
-3.36E-05,-0.001004412
-3.36E-05,-0.001673185
-3.36E-05,-0.002007572
-3.35E-05,-0.002676345
-3.35E-05,-0.002341958
-3.35E-05,-0.002007572
-3.35E-05,-0.003010732
-3.35E-05,-0.001673185
-3.34E-05,-0.003010732
-3.34E-05,-0.002676345
-3.34E-05,-0.003345118
-3.34E-05,-0.002341958
-3.34E-05,-0.002341958
-3.33E-05,-0.003010732
-3.33E-05,-0.003679505
-3.33E-05,-0.003010732
-3.33E-05,-0.002676345
-3.33E-05,-0.003010732
-3.32E-05,-0.003345118
-3.32E-05,-0.001673185
-3.32E-05,-0.003010732
-3.32E-05,-0.002341958
-3.32E-05,-0.002341958
-3.31E-05,-0.003010732
-3.31E-05,-0.001338799
-3.31E-05,-0.001673185
-3.31E-05,-0.002676345
-3.31E-05,-0.002676345
-3.30E-05,-0.002007572
-3.30E-05,-0.003010732
-3.30E-05,-0.002341958
-3.30E-05,-0.002676345
-3.30E-05,-0.001673185
-3.29E-05,-0.002007572
-3.29E-05,-0.002341958
-3.29E-05,-0.002676345
-3.29E-05,-0.002341958
-3.29E-05,-0.002341958
-3.28E-05,-0.002007572
-3.28E-05,-0.001338799
-3.28E-05,-0.002676345
-3.28E-05,-0.003345118
-3.28E-05,-0.002341958
-3.27E-05,-0.002341958
-3.27E-05,-0.002676345
-3.27E-05,-0.002341958
-3.27E-05,-0.003010732
-3.27E-05,-0.002341958
-3.26E-05,-0.001004412
-3.26E-05,-0.002341958
-3.26E-05,-0.002007572
-3.26E-05,-0.002341958
-3.26E-05,-0.003010732
-3.25E-05,-0.003010732
-3.25E-05,-0.003010732
-3.25E-05,-0.002007572
-3.25E-05,-0.002007572
-3.25E-05,-0.001004412
-3.24E-05,-0.002007572
-3.24E-05,-0.001673185
-3.24E-05,-0.001338799
-3.24E-05,-0.001673185
-3.24E-05,-0.002007572
-3.23E-05,-0.001338799
-3.23E-05,-0.002676345
-3.23E-05,-0.001338799
-3.23E-05,-0.002007572
-3.23E-05,-0.001338799
-3.22E-05,-0.002341958
-3.22E-05,-0.001673185
-3.22E-05,-0.001004412
-3.22E-05,-0.002341958
-3.22E-05,-0.002676345
-3.21E-05,-0.002007572
-3.21E-05,-0.001004412
-3.21E-05,-0.002341958
-3.21E-05,-0.003345118
-3.21E-05,-0.002676345
-3.20E-05,-0.002007572
-3.20E-05,-0.002007572
-3.20E-05,-0.002341958
-3.20E-05,-0.001338799
-3.20E-05,-0.002007572
-3.19E-05,-0.002341958
-3.19E-05,-0.002007572
-3.19E-05,-0.002676345
-3.19E-05,-0.000670025
-3.19E-05,-0.002341958
-3.18E-05,-0.001004412
-3.18E-05,-0.001338799
-3.18E-05,-0.001673185
-3.18E-05,-0.001673185
-3.18E-05,-0.001338799
-3.17E-05,-0.002007572
-3.17E-05,-0.001338799
-3.17E-05,-0.002007572
-3.17E-05,-0.001673185
-3.17E-05,-0.001338799
-3.16E-05,-0.002341958
-3.16E-05,-0.001338799
-3.16E-05,-0.002341958
-3.16E-05,-0.002341958
-3.16E-05,-0.001673185
-3.15E-05,-0.002676345
-3.15E-05,-0.001673185
-3.15E-05,-0.001338799
-3.15E-05,-0.000670025
-3.15E-05,-0.002341958
-3.14E-05,-0.001338799
-3.14E-05,-0.002676345
-3.14E-05,-0.003010732
-3.14E-05,-0.002676345
-3.14E-05,-0.001673185
-3.13E-05,-0.002676345
-3.13E-05,-0.001338799
-3.13E-05,-0.001673185
-3.13E-05,-0.002007572
-3.13E-05,-0.002341958
-3.12E-05,-0.001338799
-3.12E-05,-0.003010732
-3.12E-05,-0.000670025
-3.12E-05,-0.001673185
-3.12E-05,-0.002341958
-3.11E-05,-0.002341958
-3.11E-05,-0.002007572
-3.11E-05,-0.001338799
-3.11E-05,-0.001673185
-3.11E-05,-0.001673185
-3.10E-05,-0.002341958
-3.10E-05,-0.003010732
-3.10E-05,-0.003010732
-3.10E-05,-0.002007572
-3.10E-05,-0.002341958
-3.09E-05,-0.003010732
-3.09E-05,-0.002676345
-3.09E-05,-0.003010732
-3.09E-05,-0.001673185
-3.09E-05,-0.003010732
-3.08E-05,-0.001338799
-3.08E-05,-0.002007572
-3.08E-05,-0.002341958
-3.08E-05,-0.002676345
-3.08E-05,-0.003010732
-3.07E-05,-0.002341958
-3.07E-05,-0.002007572
-3.07E-05,-0.001673185
-3.07E-05,-0.003345118
-3.07E-05,-0.001673185
-3.06E-05,-0.001673185
-3.06E-05,-0.001673185
-3.06E-05,-0.001004412
-3.06E-05,-0.002007572
-3.06E-05,-0.001338799
-3.05E-05,-0.001673185
-3.05E-05,-0.002676345
-3.05E-05,-0.002007572
-3.05E-05,-0.002007572
-3.05E-05,-0.002007572
-3.04E-05,-0.002341958
-3.04E-05,-0.001673185
-3.04E-05,-0.001338799
-3.04E-05,-0.002341958
-3.04E-05,-0.002341958
-3.03E-05,-0.002007572
-3.03E-05,-0.003010732
-3.03E-05,-0.003010732
-3.03E-05,-0.002676345
-3.03E-05,-0.002341958
-3.02E-05,-0.001673185
-3.02E-05,-0.002007572
-3.02E-05,-0.003345118
-3.02E-05,-0.003010732
-3.02E-05,-0.002007572
-3.01E-05,-0.002676345
-3.01E-05,-0.003345118
-3.01E-05,-0.002007572
-3.01E-05,-0.003679505
-3.01E-05,-0.002676345
-3.00E-05,-0.003010732
-3.00E-05,-0.002007572
-3.00E-05,-0.002341958
-3.00E-05,-0.001004412
-3.00E-05,-0.002007572
-2.99E-05,-0.002341958
-2.99E-05,-0.002341958
-2.99E-05,-0.002007572
-2.99E-05,-0.002676345
-2.99E-05,-0.002007572
-2.98E-05,-0.000670025
-2.98E-05,-0.003010732
-2.98E-05,-0.002341958
-2.98E-05,-0.001004412
-2.98E-05,-0.002341958
-2.97E-05,-0.002676345
-2.97E-05,-0.001673185
-2.97E-05,-0.001338799
-2.97E-05,-0.002676345
-2.97E-05,-0.002341958
-2.96E-05,-0.002341958
-2.96E-05,-0.003010732
-2.96E-05,-0.002341958
-2.96E-05,-0.002341958
-2.96E-05,-0.002341958
-2.95E-05,-0.001338799
-2.95E-05,-0.002007572
-2.95E-05,-0.002676345
-2.95E-05,-0.001673185
-2.95E-05,-0.002007572
-2.94E-05,-0.002676345
-2.94E-05,-0.002007572
-2.94E-05,-0.002007572
-2.94E-05,-0.002007572
-2.94E-05,-0.002007572
-2.93E-05,-0.002007572
-2.93E-05,-0.003345118
-2.93E-05,-0.002341958
-2.93E-05,-0.002341958
-2.93E-05,-0.002341958
-2.92E-05,-0.002676345
-2.92E-05,-0.001673185
-2.92E-05,-0.002007572
-2.92E-05,-0.001338799
-2.92E-05,-0.002007572
-2.91E-05,-0.002007572
-2.91E-05,-0.001338799
-2.91E-05,-0.001673185
-2.91E-05,-0.002341958
-2.91E-05,-0.002341958
-2.90E-05,-0.002007572
-2.90E-05,-0.003010732
-2.90E-05,-0.002007572
-2.90E-05,-0.002341958
-2.90E-05,-0.002007572
-2.89E-05,-0.001673185
-2.89E-05,-0.002007572
-2.89E-05,-0.001673185
-2.89E-05,-0.001338799
-2.89E-05,-0.001004412
-2.88E-05,-0.002007572
-2.88E-05,-0.002007572
-2.88E-05,-0.002341958
-2.88E-05,-0.002341958
-2.88E-05,-0.002007572
-2.87E-05,-0.002341958
-2.87E-05,-0.002007572
-2.87E-05,-0.001338799
-2.87E-05,-0.002676345
-2.87E-05,-0.001673185
-2.86E-05,-0.002007572
-2.86E-05,-0.002007572
-2.86E-05,-0.001004412
-2.86E-05,-0.002007572
-2.86E-05,-0.001004412
-2.85E-05,-0.003345118
-2.85E-05,-0.002007572
-2.85E-05,-0.001338799
-2.85E-05,-0.002676345
-2.85E-05,-0.002007572
-2.84E-05,-0.002341958
-2.84E-05,-0.002007572
-2.84E-05,-0.002676345
-2.84E-05,-0.002007572
-2.84E-05,-0.003010732
-2.83E-05,-0.001673185
-2.83E-05,-0.002007572
-2.83E-05,-0.001673185
-2.83E-05,-0.002676345
-2.83E-05,-0.003345118
-2.82E-05,-0.002676345
-2.82E-05,-0.001338799
-2.82E-05,-0.002676345
-2.82E-05,-0.002341958
-2.82E-05,-0.003010732
-2.81E-05,-0.002007572
-2.81E-05,-0.003010732
-2.81E-05,-0.002007572
-2.81E-05,-0.001673185
-2.81E-05,-0.003010732
-2.80E-05,-0.002676345
-2.80E-05,-0.001673185
-2.80E-05,-0.003345118
-2.80E-05,-0.004013892
-2.80E-05,-0.003010732
-2.79E-05,-0.002007572
-2.79E-05,-0.002341958
-2.79E-05,-0.002341958
-2.79E-05,-0.003345118
-2.79E-05,-0.001673185
-2.78E-05,-0.002676345
-2.78E-05,-0.002676345
-2.78E-05,-0.002007572
-2.78E-05,-0.003010732
-2.78E-05,-0.002341958
-2.77E-05,-0.002676345
-2.77E-05,-0.001673185
-2.77E-05,-0.002341958
-2.77E-05,-0.002676345
-2.77E-05,-0.001673185
-2.76E-05,-0.002007572
-2.76E-05,-0.002676345
-2.76E-05,-0.003679505
-2.76E-05,-0.002676345
-2.76E-05,-0.002007572
-2.75E-05,-0.003345118
-2.75E-05,-0.003010732
-2.75E-05,-0.002341958
-2.75E-05,-0.002007572
-2.75E-05,-0.003345118
-2.74E-05,-0.002341958
-2.74E-05,-0.001673185
-2.74E-05,-0.001673185
-2.74E-05,-0.002341958
-2.74E-05,-0.003010732
-2.73E-05,-0.001673185
-2.73E-05,-0.002007572
-2.73E-05,-0.002676345
-2.73E-05,-0.002007572
-2.73E-05,-0.001673185
-2.72E-05,-0.002676345
-2.72E-05,-0.002341958
-2.72E-05,-0.003345118
-2.72E-05,-0.003010732
-2.72E-05,-0.002676345
-2.71E-05,-0.003345118
-2.71E-05,-0.002341958
-2.71E-05,-0.004013892
-2.71E-05,-0.003345118
-2.71E-05,-0.002341958
-2.70E-05,-0.002007572
-2.70E-05,-0.003679505
-2.70E-05,-0.003010732
-2.70E-05,-0.002341958
-2.70E-05,-0.002341958
-2.69E-05,-0.003010732
-2.69E-05,-0.003010732
-2.69E-05,-0.002341958
-2.69E-05,-0.003010732
-2.69E-05,-0.003010732
-2.68E-05,-0.003010732
-2.68E-05,-0.004013892
-2.68E-05,-0.003679505
-2.68E-05,-0.003345118
-2.68E-05,-0.004348278
-2.67E-05,-0.004348278
-2.67E-05,-0.003010732
-2.67E-05,-0.003010732
-2.67E-05,-0.003010732
-2.67E-05,-0.004013892
-2.66E-05,-0.003345118
-2.66E-05,-0.003010732
-2.66E-05,-0.003010732
-2.66E-05,-0.002341958
-2.66E-05,-0.002341958
-2.65E-05,-0.003345118
-2.65E-05,-0.003010732
-2.65E-05,-0.004013892
-2.65E-05,-0.003345118
-2.65E-05,-0.002007572
-2.64E-05,-0.002007572
-2.64E-05,-0.003010732
-2.64E-05,-0.002676345
-2.64E-05,-0.002676345
-2.64E-05,-0.002676345
-2.63E-05,-0.004013892
-2.63E-05,-0.002676345
-2.63E-05,-0.003345118
-2.63E-05,-0.003010732
-2.63E-05,-0.003010732
-2.62E-05,-0.002007572
-2.62E-05,-0.002007572
-2.62E-05,-0.002676345
-2.62E-05,-0.003345118
-2.62E-05,-0.004013892
-2.61E-05,-0.003010732
-2.61E-05,-0.002676345
-2.61E-05,-0.001673185
-2.61E-05,-0.003010732
-2.61E-05,-0.003010732
-2.60E-05,-0.003010732
-2.60E-05,-0.003679505
-2.60E-05,-0.002676345
-2.60E-05,-0.002007572
-2.60E-05,-0.002676345
-2.59E-05,-0.003345118
-2.59E-05,-0.003010732
-2.59E-05,-0.002676345
-2.59E-05,-0.003679505
-2.59E-05,-0.003345118
-2.58E-05,-0.003010732
-2.58E-05,-0.002341958
-2.58E-05,-0.002676345
-2.58E-05,-0.002676345
-2.58E-05,-0.002341958
-2.57E-05,-0.003010732
-2.57E-05,-0.003345118
-2.57E-05,-0.002676345
-2.57E-05,-0.002341958
-2.57E-05,-0.002007572
-2.56E-05,-0.001673185
-2.56E-05,-0.003010732
-2.56E-05,-0.002676345
-2.56E-05,-0.002007572
-2.56E-05,-0.002341958
-2.55E-05,-0.001673185
-2.55E-05,-0.001004412
-2.55E-05,-0.003679505
-2.55E-05,-0.001004412
-2.55E-05,-0.002007572
-2.54E-05,-0.002341958
-2.54E-05,-0.002676345
-2.54E-05,-0.003010732
-2.54E-05,-0.003010732
-2.54E-05,-0.003345118
-2.53E-05,-0.002341958
-2.53E-05,-0.002341958
-2.53E-05,-0.004013892
-2.53E-05,-0.003010732
-2.53E-05,-0.002676345
-2.52E-05,-0.002341958
-2.52E-05,-0.001338799
-2.52E-05,-0.002341958
-2.52E-05,-0.002676345
-2.52E-05,-0.003010732
-2.51E-05,-0.003345118
-2.51E-05,-0.001673185
-2.51E-05,-0.003010732
-2.51E-05,-0.002676345
-2.51E-05,-0.004013892
-2.50E-05,-0.003010732
-2.50E-05,-0.003010732
-2.50E-05,-0.003679505
-2.50E-05,-0.003010732
-2.50E-05,-0.002341958
-2.49E-05,-0.002676345
-2.49E-05,-0.002676345
-2.49E-05,-0.003010732
-2.49E-05,-0.001338799
-2.49E-05,-0.002007572
-2.48E-05,-0.003010732
-2.48E-05,-0.002007572
-2.48E-05,-0.002007572
-2.48E-05,-0.002341958
-2.48E-05,-0.003010732
-2.47E-05,-0.001673185
-2.47E-05,-0.003679505
-2.47E-05,-0.003345118
-2.47E-05,-0.002341958
-2.47E-05,-0.003345118
-2.46E-05,-0.002676345
-2.46E-05,-0.003010732
-2.46E-05,-0.002676345
-2.46E-05,-0.003345118
-2.46E-05,-0.003010732
-2.45E-05,-0.003010732
-2.45E-05,-0.002341958
-2.45E-05,-0.002341958
-2.45E-05,-0.003010732
-2.45E-05,-0.004348278
-2.44E-05,-0.002007572
-2.44E-05,-0.003010732
-2.44E-05,-0.002676345
-2.44E-05,-0.001338799
-2.44E-05,-0.002341958
-2.43E-05,-0.003679505
-2.43E-05,-0.001673185
-2.43E-05,-0.002341958
-2.43E-05,-0.002007572
-2.43E-05,-0.002676345
-2.42E-05,-0.001004412
-2.42E-05,-0.002007572
-2.42E-05,-0.002007572
-2.42E-05,-0.003010732
-2.42E-05,-0.001673185
-2.41E-05,-0.002676345
-2.41E-05,-0.001673185
-2.41E-05,-0.002007572
-2.41E-05,-0.002341958
-2.41E-05,-0.002007572
-2.40E-05,-0.002341958
-2.40E-05,-0.002341958
-2.40E-05,-0.002007572
-2.40E-05,-0.002341958
-2.40E-05,-0.002007572
-2.39E-05,-0.001673185
-2.39E-05,-0.001673185
-2.39E-05,-0.002007572
-2.39E-05,-0.002676345
-2.39E-05,-0.001673185
-2.38E-05,-0.002341958
-2.38E-05,-0.002341958
-2.38E-05,-0.001004412
-2.38E-05,-0.002341958
-2.38E-05,-0.002007572
-2.37E-05,-0.002341958
-2.37E-05,-0.001673185
-2.37E-05,-0.001004412
-2.37E-05,-0.002007572
-2.37E-05,-0.001338799
-2.36E-05,-0.001673185
-2.36E-05,-0.001338799
-2.36E-05,-0.002007572
-2.36E-05,-0.001338799
-2.36E-05,-0.001004412
-2.35E-05,-0.002676345
-2.35E-05,-0.002341958
-2.35E-05,-0.001673185
-2.35E-05,-0.002341958
-2.35E-05,-0.001004412
-2.34E-05,-0.002676345
-2.34E-05,-0.001004412
-2.34E-05,-0.000670025
-2.34E-05,-0.001338799
-2.34E-05,-0.001673185
-2.33E-05,-0.002341958
-2.33E-05,-0.001338799
-2.33E-05,-0.002007572
-2.33E-05,-0.001673185
-2.33E-05,-1.25E-06
-2.32E-05,-0.002007572
-2.32E-05,-0.001004412
-2.32E-05,-0.001004412
-2.32E-05,-0.002007572
-2.32E-05,-0.000670025
-2.31E-05,-0.001673185
-2.31E-05,-0.001004412
-2.31E-05,-0.002341958
-2.31E-05,-0.000670025
-2.31E-05,-0.001004412
-2.30E-05,-0.001338799
-2.30E-05,-0.001338799
-2.30E-05,-1.25E-06
-2.30E-05,-0.001338799
-2.30E-05,-0.001004412
-2.29E-05,-0.001004412
-2.29E-05,-0.001004412
-2.29E-05,-0.001338799
-2.29E-05,-0.001338799
-2.29E-05,-0.001338799
-2.28E-05,-0.001673185
-2.28E-05,-0.002676345
-2.28E-05,-0.001004412
-2.28E-05,-0.001004412
-2.28E-05,-0.002676345
-2.27E-05,-0.001338799
-2.27E-05,-0.001338799
-2.27E-05,-0.002007572
-2.27E-05,-0.001338799
-2.27E-05,-0.002341958
-2.26E-05,-0.001004412
-2.26E-05,-0.001673185
-2.26E-05,-0.001004412
-2.26E-05,-0.001338799
-2.26E-05,-0.001338799
-2.25E-05,-0.001004412
-2.25E-05,-0.002007572
-2.25E-05,-0.001338799
-2.25E-05,-0.002341958
-2.25E-05,-0.001673185
-2.24E-05,-0.002341958
-2.24E-05,-0.002341958
-2.24E-05,-0.002341958
-2.24E-05,-0.001673185
-2.24E-05,-0.001338799
-2.23E-05,-0.001673185
-2.23E-05,-0.002007572
-2.23E-05,-0.001673185
-2.23E-05,-0.001673185
-2.23E-05,-0.001673185
-2.22E-05,-0.001338799
-2.22E-05,-0.001004412
-2.22E-05,-0.001673185
-2.22E-05,-0.001004412
-2.22E-05,-0.001338799
-2.21E-05,-0.001004412
-2.21E-05,-0.001673185
-2.21E-05,-0.001673185
-2.21E-05,-0.002007572
-2.21E-05,-0.002007572
-2.20E-05,-0.000670025
-2.20E-05,-0.000670025
-2.20E-05,-0.002007572
-2.20E-05,-0.002007572
-2.20E-05,-0.001673185
-2.19E-05,-0.000670025
-2.19E-05,-0.001673185
-2.19E-05,-0.000670025
-2.19E-05,-1.25E-06
-2.19E-05,-0.002676345
-2.18E-05,-0.002007572
-2.18E-05,-0.002007572
-2.18E-05,-0.001673185
-2.18E-05,-0.001338799
-2.18E-05,-0.001338799
-2.17E-05,-0.003010732
-2.17E-05,-0.002341958
-2.17E-05,-0.002007572
-2.17E-05,-0.001673185
-2.17E-05,-0.002676345
-2.16E-05,-0.002007572
-2.16E-05,-0.002007572
-2.16E-05,-0.001338799
-2.16E-05,-0.002007572
-2.16E-05,-0.001673185
-2.15E-05,-0.001338799
-2.15E-05,-0.001673185
-2.15E-05,-0.001338799
-2.15E-05,-0.002007572
-2.15E-05,-0.002676345
-2.14E-05,-0.001673185
-2.14E-05,-0.001338799
-2.14E-05,-0.001673185
-2.14E-05,-0.001004412
-2.14E-05,-0.001673185
-2.13E-05,-0.002676345
-2.13E-05,-0.001338799
-2.13E-05,-0.002341958
-2.13E-05,-0.002676345
-2.13E-05,-0.003679505
-2.12E-05,-0.002007572
-2.12E-05,-0.001673185
-2.12E-05,-0.003345118
-2.12E-05,-0.002676345
-2.12E-05,-0.001338799
-2.11E-05,-0.001338799
-2.11E-05,-0.003345118
-2.11E-05,-0.003679505
-2.11E-05,-0.002007572
-2.11E-05,-0.001673185
-2.10E-05,-0.002007572
-2.10E-05,-0.002341958
-2.10E-05,-0.001338799
-2.10E-05,-0.002007572
-2.10E-05,-0.002007572
-2.09E-05,-0.001004412
-2.09E-05,-0.001338799
-2.09E-05,-0.001338799
-2.09E-05,-0.002007572
-2.09E-05,-0.001338799
-2.08E-05,-0.001673185
-2.08E-05,-0.002341958
-2.08E-05,-0.002341958
-2.08E-05,-0.002341958
-2.08E-05,-0.002676345
-2.07E-05,-0.003010732
-2.07E-05,-0.002341958
-2.07E-05,-0.003010732
-2.07E-05,-0.001673185
-2.07E-05,-0.003010732
-2.06E-05,-0.003010732
-2.06E-05,-0.002341958
-2.06E-05,-0.003010732
-2.06E-05,-0.001338799
-2.06E-05,-0.002341958
-2.05E-05,-0.002676345
-2.05E-05,-0.002007572
-2.05E-05,-0.002341958
-2.05E-05,-0.003010732
-2.05E-05,-0.002676345
-2.04E-05,-0.001004412
-2.04E-05,-0.002007572
-2.04E-05,-0.002676345
-2.04E-05,-0.001673185
-2.04E-05,-0.001338799
-2.03E-05,-0.002676345
-2.03E-05,-0.002341958
-2.03E-05,-0.002341958
-2.03E-05,-0.002341958
-2.03E-05,-0.002007572
-2.02E-05,-0.002007572
-2.02E-05,-0.003010732
-2.02E-05,-0.002007572
-2.02E-05,-0.002341958
-2.02E-05,-0.001338799
-2.01E-05,-0.002007572
-2.01E-05,-0.001673185
-2.01E-05,-0.002341958
-2.01E-05,-0.001673185
-2.01E-05,-0.001673185
-2.00E-05,-0.002007572
-2.00E-05,-0.003010732
-2.00E-05,-0.002341958
-2.00E-05,-0.002007572
-2.00E-05,-0.002341958
-1.99E-05,-0.003010732
-1.99E-05,-0.002007572
-1.99E-05,-0.002007572
-1.99E-05,-0.001673185
-1.99E-05,-0.001338799
-1.98E-05,-0.003010732
-1.98E-05,-0.002676345
-1.98E-05,-0.003345118
-1.98E-05,-0.003345118
-1.98E-05,-0.004013892
-1.97E-05,-0.002676345
-1.97E-05,-0.002676345
-1.97E-05,-0.002676345
-1.97E-05,-0.002676345
-1.97E-05,-0.003010732
-1.96E-05,-0.003010732
-1.96E-05,-0.002676345
-1.96E-05,-0.002341958
-1.96E-05,-0.003345118
-1.96E-05,-0.003345118
-1.95E-05,-0.003010732
-1.95E-05,-0.003010732
-1.95E-05,-0.002341958
-1.95E-05,-0.003010732
-1.95E-05,-0.002341958
-1.94E-05,-0.002341958
-1.94E-05,-0.002676345
-1.94E-05,-0.003345118
-1.94E-05,-0.003679505
-1.94E-05,-0.003010732
-1.93E-05,-0.002341958
-1.93E-05,-0.004348278
-1.93E-05,-0.003010732
-1.93E-05,-0.003345118
-1.93E-05,-0.003010732
-1.92E-05,-0.002341958
-1.92E-05,-0.004013892
-1.92E-05,-0.003010732
-1.92E-05,-0.002341958
-1.92E-05,-0.002676345
-1.91E-05,-0.002341958
-1.91E-05,-0.002341958
-1.91E-05,-0.002676345
-1.91E-05,-0.003345118
-1.91E-05,-0.002676345
-1.90E-05,-0.003010732
-1.90E-05,-0.003679505
-1.90E-05,-0.003345118
-1.90E-05,-0.001673185
-1.90E-05,-0.002007572
-1.89E-05,-0.002341958
-1.89E-05,-0.002007572
-1.89E-05,-0.001338799
-1.89E-05,-0.001673185
-1.89E-05,-0.002676345
-1.88E-05,-0.002007572
-1.88E-05,-0.002676345
-1.88E-05,-0.002341958
-1.88E-05,-0.002341958
-1.88E-05,-0.002007572
-1.87E-05,-0.002341958
-1.87E-05,-0.002341958
-1.87E-05,-0.002007572
-1.87E-05,-0.003010732
-1.87E-05,-0.002341958
-1.86E-05,-0.001338799
-1.86E-05,-0.001673185
-1.86E-05,-0.002676345
-1.86E-05,-0.003345118
-1.86E-05,-0.002007572
-1.85E-05,-0.002007572
-1.85E-05,-0.002007572
-1.85E-05,-0.003010732
-1.85E-05,-0.002676345
-1.85E-05,-0.002676345
-1.84E-05,-0.002341958
-1.84E-05,-0.002676345
-1.84E-05,-0.003010732
-1.84E-05,-0.003010732
-1.84E-05,-0.003345118
-1.83E-05,-0.003010732
-1.83E-05,-0.002676345
-1.83E-05,-0.003010732
-1.83E-05,-0.002341958
-1.83E-05,-0.001673185
-1.82E-05,-0.002007572
-1.82E-05,-0.003345118
-1.82E-05,-0.002341958
-1.82E-05,-0.002676345
-1.82E-05,-0.002341958
-1.81E-05,-0.003345118
-1.81E-05,-0.002676345
-1.81E-05,-0.002676345
-1.81E-05,-0.003010732
-1.81E-05,-0.003345118
-1.80E-05,-0.003345118
-1.80E-05,-0.002676345
-1.80E-05,-0.003010732
-1.80E-05,-0.002007572
-1.80E-05,-0.003345118
-1.79E-05,-0.002341958
-1.79E-05,-0.002676345
-1.79E-05,-0.002676345
-1.79E-05,-0.002007572
-1.79E-05,-0.002676345
-1.78E-05,-0.002676345
-1.78E-05,-0.002341958
-1.78E-05,-0.002007572
-1.78E-05,-0.001673185
-1.78E-05,-0.002341958
-1.77E-05,-0.002676345
-1.77E-05,-0.002676345
-1.77E-05,-0.002007572
-1.77E-05,-0.001673185
-1.77E-05,-0.002676345
-1.76E-05,-0.002676345
-1.76E-05,-0.001673185
-1.76E-05,-0.002007572
-1.76E-05,-0.003345118
-1.76E-05,-0.003010732
-1.75E-05,-0.003010732
-1.75E-05,-0.002341958
-1.75E-05,-0.003345118
-1.75E-05,-0.003345118
-1.75E-05,-0.003679505
-1.74E-05,-0.002676345
-1.74E-05,-0.003345118
-1.74E-05,-0.002007572
-1.74E-05,-0.002341958
-1.74E-05,-0.002676345
-1.73E-05,-0.003010732
-1.73E-05,-0.002676345
-1.73E-05,-0.002007572
-1.73E-05,-0.002341958
-1.73E-05,-0.002007572
-1.72E-05,-0.002676345
-1.72E-05,-0.002341958
-1.72E-05,-0.002007572
-1.72E-05,-0.002007572
-1.72E-05,-0.002341958
-1.71E-05,-0.002341958
-1.71E-05,-0.001004412
-1.71E-05,-0.002676345
-1.71E-05,-0.002676345
-1.71E-05,-0.002676345
-1.70E-05,-0.002676345
-1.70E-05,-0.001673185
-1.70E-05,-0.002007572
-1.70E-05,-0.002341958
-1.70E-05,-0.002341958
-1.69E-05,-0.003010732
-1.69E-05,-0.001673185
-1.69E-05,-0.003010732
-1.69E-05,-0.002341958
-1.69E-05,-0.002341958
-1.68E-05,-0.003010732
-1.68E-05,-0.002007572
-1.68E-05,-0.002341958
-1.68E-05,-0.003010732
-1.68E-05,-0.002007572
-1.67E-05,-0.002676345
-1.67E-05,-0.002676345
-1.67E-05,-0.003345118
-1.67E-05,-0.002007572
-1.67E-05,-0.003010732
-1.66E-05,-0.003010732
-1.66E-05,-0.002341958
-1.66E-05,-0.002341958
-1.66E-05,-0.003010732
-1.66E-05,-0.001338799
-1.65E-05,-0.003010732
-1.65E-05,-0.003010732
-1.65E-05,-0.002341958
-1.65E-05,-0.001673185
-1.65E-05,-0.001338799
-1.64E-05,-0.002007572
-1.64E-05,-0.002341958
-1.64E-05,-0.001004412
-1.64E-05,-0.002676345
-1.64E-05,-0.004682665
-1.63E-05,0.000667521
-1.63E-05,-0.001673185
-1.63E-05,-0.002676345
-1.63E-05,-0.001004412
-1.63E-05,-0.002341958
-1.62E-05,-0.002341958
-1.62E-05,-0.001004412
-1.62E-05,-0.002341958
-1.62E-05,-0.002007572
-1.62E-05,-0.001673185
-1.61E-05,-0.002007572
-1.61E-05,-0.001673185
-1.61E-05,-0.001338799
-1.61E-05,-0.001004412
-1.61E-05,-0.002341958
-1.60E-05,-0.002341958
-1.60E-05,-0.001673185
-1.60E-05,-0.002341958
-1.60E-05,-0.002007572
-1.60E-05,-0.002341958
-1.59E-05,-0.001338799
-1.59E-05,-0.002007572
-1.59E-05,-0.002676345
-1.59E-05,-0.002676345
-1.59E-05,-0.001338799
-1.58E-05,-0.001673185
-1.58E-05,-0.001673185
-1.58E-05,-0.002341958
-1.58E-05,-0.002007572
-1.58E-05,-0.001338799
-1.57E-05,-0.001673185
-1.57E-05,-0.002341958
-1.57E-05,-0.002341958
-1.57E-05,-0.000335639
-1.57E-05,-0.002341958
-1.56E-05,-0.002007572
-1.56E-05,-0.003345118
-1.56E-05,-0.002341958
-1.56E-05,-0.001338799
-1.56E-05,-0.001338799
-1.55E-05,-0.002007572
-1.55E-05,-0.001004412
-1.55E-05,-0.001338799
-1.55E-05,-0.001338799
-1.55E-05,-0.001673185
-1.54E-05,-0.001673185
-1.54E-05,-0.002676345
-1.54E-05,-0.002676345
-1.54E-05,-0.001673185
-1.54E-05,-0.002341958
-1.53E-05,-0.001673185
-1.53E-05,-0.002007572
-1.53E-05,-0.001338799
-1.53E-05,-0.002676345
-1.53E-05,-0.002007572
-1.52E-05,-0.001673185
-1.52E-05,-0.001338799
-1.52E-05,-0.003010732
-1.52E-05,-0.001338799
-1.52E-05,-0.001673185
-1.51E-05,-0.001004412
-1.51E-05,-0.001673185
-1.51E-05,-0.002007572
-1.51E-05,-0.001338799
-1.51E-05,-0.002007572
-1.50E-05,-0.001673185
-1.50E-05,-0.003010732
-1.50E-05,-0.001673185
-1.50E-05,-0.001673185
-1.50E-05,-0.002341958
-1.49E-05,-0.002676345
-1.49E-05,-0.002007572
-1.49E-05,-0.002341958
-1.49E-05,-0.001673185
-1.49E-05,-0.001673185
-1.48E-05,-0.001673185
-1.48E-05,-0.002341958
-1.48E-05,-0.001673185
-1.48E-05,-0.001673185
-1.48E-05,-0.001004412
-1.47E-05,-0.002341958
-1.47E-05,-0.002341958
-1.47E-05,-0.001673185
-1.47E-05,-0.001673185
-1.47E-05,-0.001004412
-1.46E-05,-0.001673185
-1.46E-05,-0.002007572
-1.46E-05,-0.002007572
-1.46E-05,-0.000670025
-1.46E-05,-0.002341958
-1.45E-05,-0.002341958
-1.45E-05,-0.002007572
-1.45E-05,-0.001673185
-1.45E-05,-0.001338799
-1.45E-05,-0.002007572
-1.44E-05,-0.002007572
-1.44E-05,-0.002007572
-1.44E-05,-0.001673185
-1.44E-05,-0.002341958
-1.44E-05,-0.002341958
-1.43E-05,-0.003345118
-1.43E-05,-0.003345118
-1.43E-05,-0.002007572
-1.43E-05,-0.002007572
-1.43E-05,-0.001338799
-1.42E-05,-0.003010732
-1.42E-05,-0.002341958
-1.42E-05,-0.002007572
-1.42E-05,-0.003010732
-1.42E-05,-0.002341958
-1.41E-05,-0.002341958
-1.41E-05,-0.002007572
-1.41E-05,-0.002676345
-1.41E-05,-0.002341958
-1.41E-05,-0.002341958
-1.40E-05,-0.001673185
-1.40E-05,-0.002007572
-1.40E-05,-0.001338799
-1.40E-05,-0.002007572
-1.40E-05,-0.001338799
-1.39E-05,-0.002007572
-1.39E-05,-0.002007572
-1.39E-05,-0.002676345
-1.39E-05,-0.002341958
-1.39E-05,-0.002341958
-1.38E-05,-0.002341958
-1.38E-05,-0.001004412
-1.38E-05,-0.001338799
-1.38E-05,-0.002007572
-1.38E-05,-0.003679505
-1.37E-05,-0.002007572
-1.37E-05,-0.003010732
-1.37E-05,-0.003010732
-1.37E-05,-0.001673185
-1.37E-05,-0.002007572
-1.36E-05,-0.002341958
-1.36E-05,-0.003345118
-1.36E-05,-0.003010732
-1.36E-05,-0.002341958
-1.36E-05,-0.002676345
-1.35E-05,-0.003345118
-1.35E-05,-0.001673185
-1.35E-05,-0.002341958
-1.35E-05,-0.002341958
-1.35E-05,-0.001673185
-1.34E-05,-0.002676345
-1.34E-05,-0.002676345
-1.34E-05,-0.002676345
-1.34E-05,-0.002341958
-1.34E-05,-0.003010732
-1.33E-05,-0.002676345
-1.33E-05,-0.002341958
-1.33E-05,-0.004013892
-1.33E-05,-0.003010732
-1.33E-05,-0.003679505
-1.32E-05,-0.003345118
-1.32E-05,-0.002341958
-1.32E-05,-0.002341958
-1.32E-05,-0.003010732
-1.32E-05,-0.002676345
-1.31E-05,-0.002676345
-1.31E-05,-0.002676345
-1.31E-05,-0.001673185
-1.31E-05,-0.002007572
-1.31E-05,-0.002676345
-1.30E-05,-0.003345118
-1.30E-05,-0.002341958
-1.30E-05,-0.003010732
-1.30E-05,-0.004348278
-1.30E-05,-0.002007572
-1.29E-05,-0.003345118
-1.29E-05,-0.003010732
-1.29E-05,-0.003010732
-1.29E-05,-0.003010732
-1.29E-05,-0.003010732
-1.28E-05,-0.002676345
-1.28E-05,-0.002676345
-1.28E-05,-0.002676345
-1.28E-05,-0.003010732
-1.28E-05,-0.002007572
-1.27E-05,-0.002007572
-1.27E-05,-0.003679505
-1.27E-05,-0.003010732
-1.27E-05,-0.002341958
-1.27E-05,-0.001673185
-1.26E-05,-0.002676345
-1.26E-05,-0.002341958
-1.26E-05,-0.002341958
-1.26E-05,-0.003679505
-1.26E-05,-0.003010732
-1.25E-05,-0.003345118
-1.25E-05,-0.001673185
-1.25E-05,-0.002341958
-1.25E-05,-0.002007572
-1.25E-05,-0.002341958
-1.24E-05,-0.002676345
-1.24E-05,-0.002676345
-1.24E-05,-0.001673185
-1.24E-05,-0.002341958
-1.24E-05,-0.003010732
-1.23E-05,-0.001673185
-1.23E-05,-0.002007572
-1.23E-05,-0.002007572
-1.23E-05,-0.002341958
-1.23E-05,-0.003010732
-1.22E-05,-0.002341958
-1.22E-05,-0.003010732
-1.22E-05,-0.002007572
-1.22E-05,-0.003010732
-1.22E-05,-0.003345118
-1.21E-05,-0.003345118
-1.21E-05,-0.002341958
-1.21E-05,-0.003010732
-1.21E-05,-0.002007572
-1.21E-05,-0.002676345
-1.20E-05,-0.001673185
-1.20E-05,-0.002007572
-1.20E-05,-0.001338799
-1.20E-05,-0.002341958
-1.20E-05,-0.001004412
-1.19E-05,-0.002007572
-1.19E-05,-0.002007572
-1.19E-05,-0.001338799
-1.19E-05,-0.001338799
-1.19E-05,-0.002341958
-1.18E-05,-0.001673185
-1.18E-05,-0.002341958
-1.18E-05,-0.001673185
-1.18E-05,-0.002676345
-1.18E-05,-0.002007572
-1.17E-05,-0.001673185
-1.17E-05,-0.002676345
-1.17E-05,-0.002341958
-1.17E-05,-0.002007572
-1.17E-05,-0.001338799
-1.16E-05,-0.002676345
-1.16E-05,-0.002676345
-1.16E-05,-0.003345118
-1.16E-05,-0.003010732
-1.16E-05,-0.003345118
-1.15E-05,-0.002676345
-1.15E-05,-0.002676345
-1.15E-05,-0.002341958
-1.15E-05,-0.002676345
-1.15E-05,-0.003679505
-1.14E-05,-0.002676345
-1.14E-05,-0.003010732
-1.14E-05,-0.002341958
-1.14E-05,-0.002676345
-1.14E-05,-0.002007572
-1.13E-05,-0.003010732
-1.13E-05,-0.003679505
-1.13E-05,-0.003679505
-1.13E-05,-0.003345118
-1.13E-05,-0.002676345
-1.12E-05,-0.003345118
-1.12E-05,-0.002676345
-1.12E-05,-0.002341958
-1.12E-05,-0.002341958
-1.12E-05,-0.003345118
-1.11E-05,-0.003010732
-1.11E-05,-0.002341958
-1.11E-05,-0.003010732
-1.11E-05,-0.002676345
-1.11E-05,-0.003010732
-1.10E-05,-0.003010732
-1.10E-05,-0.002676345
-1.10E-05,-0.003010732
-1.10E-05,-0.002007572
-1.10E-05,-0.001338799
-1.09E-05,-0.003345118
-1.09E-05,-0.003010732
-1.09E-05,-0.002007572
-1.09E-05,-0.002341958
-1.09E-05,-0.002676345
-1.08E-05,-0.003010732
-1.08E-05,-0.002676345
-1.08E-05,-0.002676345
-1.08E-05,-0.002341958
-1.08E-05,-0.003010732
-1.07E-05,-0.002341958
-1.07E-05,-0.003010732
-1.07E-05,-0.003010732
-1.07E-05,-0.002341958
-1.07E-05,-0.003010732
-1.06E-05,-0.003345118
-1.06E-05,-0.003345118
-1.06E-05,-0.003345118
-1.06E-05,-0.002341958
-1.06E-05,-0.002341958
-1.05E-05,-0.002676345
-1.05E-05,-0.002341958
-1.05E-05,-0.003010732
-1.05E-05,-0.004013892
-1.05E-05,-0.002676345
-1.04E-05,-0.002007572
-1.04E-05,-0.002007572
-1.04E-05,-0.002676345
-1.04E-05,-0.002676345
-1.04E-05,-0.003010732
-1.03E-05,-0.002341958
-1.03E-05,-0.002676345
-1.03E-05,-0.003345118
-1.03E-05,-0.002341958
-1.03E-05,-0.003010732
-1.02E-05,-0.002007572
-1.02E-05,-0.001673185
-1.02E-05,-0.002341958
-1.02E-05,-0.004013892
-1.02E-05,-0.002341958
-1.01E-05,-0.004013892
-1.01E-05,-0.002341958
-1.01E-05,-0.002341958
-1.01E-05,-0.002676345
-1.01E-05,-0.002341958
-1.00E-05,-0.002341958
-1.00E-05,-0.001673185
-1.00E-05,-0.003010732
-9.98E-06,-0.003345118
-9.96E-06,-0.003010732
-9.94E-06,-0.002007572
-9.92E-06,-0.002676345
-9.90E-06,-0.002676345
-9.88E-06,-0.003010732
-9.86E-06,-0.001338799
-9.84E-06,-0.002676345
-9.82E-06,-0.002007572
-9.80E-06,-0.001673185
-9.78E-06,-0.002007572
-9.76E-06,-0.003345118
-9.74E-06,-0.002676345
-9.72E-06,-0.002341958
-9.70E-06,-0.001673185
-9.68E-06,-0.003010732
-9.66E-06,-0.002341958
-9.64E-06,-0.002341958
-9.62E-06,-0.003010732
-9.60E-06,-0.001673185
-9.58E-06,-0.004013892
-9.56E-06,-0.002341958
-9.54E-06,-0.003679505
-9.52E-06,-0.002341958
-9.50E-06,-0.001673185
-9.48E-06,-0.002676345
-9.46E-06,-0.003010732
-9.44E-06,-0.003010732
-9.42E-06,-0.002676345
-9.40E-06,-0.002007572
-9.38E-06,-0.003679505
-9.36E-06,-0.003010732
-9.34E-06,-0.001673185
-9.32E-06,-0.003010732
-9.30E-06,-0.002341958
-9.28E-06,-0.003345118
-9.26E-06,-0.003010732
-9.24E-06,-0.002007572
-9.22E-06,-0.003679505
-9.20E-06,-0.003010732
-9.18E-06,-0.002007572
-9.16E-06,-0.002676345
-9.14E-06,-0.002676345
-9.12E-06,-0.001673185
-9.10E-06,-0.001338799
-9.08E-06,-0.003345118
-9.06E-06,-0.002341958
-9.04E-06,-0.002341958
-9.02E-06,-0.002676345
-9.00E-06,-0.002341958
-8.98E-06,-0.002007572
-8.96E-06,-0.002341958
-8.94E-06,-0.001673185
-8.92E-06,-0.003010732
-8.90E-06,-0.002676345
-8.88E-06,-0.001673185
-8.86E-06,-0.002676345
-8.84E-06,-0.002676345
-8.82E-06,-0.000670025
-8.80E-06,-0.002341958
-8.78E-06,-0.004013892
-8.76E-06,-0.001004412
-8.74E-06,-0.000670025
-8.72E-06,-0.002676345
-8.70E-06,-0.003010732
-8.68E-06,-0.002341958
-8.66E-06,-0.002676345
-8.64E-06,-0.003345118
-8.62E-06,-0.003010732
-8.60E-06,-0.003345118
-8.58E-06,-0.002341958
-8.56E-06,-0.002007572
-8.54E-06,-0.002341958
-8.52E-06,-0.002676345
-8.50E-06,-0.001673185
-8.48E-06,-0.002341958
-8.46E-06,-0.002007572
-8.44E-06,-0.002007572
-8.42E-06,-0.002007572
-8.40E-06,-0.002007572
-8.38E-06,-0.001673185
-8.36E-06,-0.002007572
-8.34E-06,-0.001004412
-8.32E-06,-0.001673185
-8.30E-06,-0.002676345
-8.28E-06,-0.003010732
-8.26E-06,-0.002676345
-8.24E-06,-0.002676345
-8.22E-06,-0.002676345
-8.20E-06,0.005014548
-8.18E-06,0.015046147
-8.16E-06,0.036446892
-8.14E-06,0.056175704
-8.12E-06,0.079582769
-8.10E-06,0.100314741
-8.08E-06,0.123053033
-8.06E-06,0.144788165
-8.04E-06,0.16719207
-8.02E-06,0.188592815
-8.00E-06,0.208990401
-7.98E-06,0.231394306
-7.96E-06,0.253129438
-7.94E-06,0.273861409
-7.92E-06,0.294927768
-7.90E-06,0.315325353
-7.88E-06,0.336391712
-7.86E-06,0.356789297
-7.84E-06,0.376852496
-7.82E-06,0.395578148
-7.80E-06,0.416978893
-7.78E-06,0.437042092
-7.76E-06,0.455433357
-7.74E-06,0.475162169
-7.72E-06,0.493887821
-7.70E-06,0.51395102
-7.68E-06,0.532676672
-7.66E-06,0.551067937
-7.64E-06,0.569793589
-7.62E-06,0.587181695
-7.60E-06,0.605238574
-7.58E-06,0.624298612
-7.56E-06,0.640683558
-7.54E-06,0.657737277
-7.52E-06,0.673787836
-7.50E-06,0.691175941
-7.48E-06,0.707560887
-7.46E-06,0.722942672
-7.44E-06,0.738658845
-7.42E-06,0.75504379
-7.40E-06,0.770425576
-7.38E-06,0.785807361
-7.36E-06,0.801523534
-7.34E-06,0.814898999
-7.32E-06,0.829277625
-7.30E-06,0.844659411
-7.28E-06,0.855359783
-7.26E-06,0.872079115
-7.24E-06,0.884785808
-7.22E-06,0.897826887
-7.20E-06,0.910199193
-7.18E-06,0.922571499
-7.16E-06,0.935946964
-7.14E-06,0.94731611
-7.12E-06,0.959019643
-7.10E-06,0.970388789
-7.08E-06,0.981423548
-7.06E-06,0.992458307
-7.04E-06,1.00315868
-7.02E-06,1.013859052
-7.00E-06,1.023556265
-6.98E-06,1.032584705
-6.96E-06,1.040944371
-6.94E-06,1.05097597
-6.92E-06,1.059335636
-6.90E-06,1.067695302
-6.88E-06,1.076054968
-6.86E-06,1.084414634
-6.84E-06,1.092105527
-6.82E-06,1.099462033
-6.80E-06,1.10681854
-6.78E-06,1.112168726
-6.76E-06,1.118522072
-6.74E-06,1.124541032
-6.72E-06,1.130894378
-6.70E-06,1.136578951
-6.68E-06,1.14159475
-6.66E-06,1.146944937
-6.64E-06,1.151960736
-6.62E-06,1.155304603
-6.60E-06,1.158314083
-6.58E-06,1.162995496
-6.56E-06,1.166004975
-6.54E-06,1.169683229
-6.52E-06,1.172023935
-6.50E-06,1.174030255
-6.48E-06,1.177039735
-6.46E-06,1.178711668
-6.44E-06,1.180049215
-6.42E-06,1.181721148
-6.40E-06,1.183058694
-6.38E-06,1.183058694
-6.36E-06,1.184061854
-6.34E-06,1.183727468
-6.32E-06,1.184730628
-6.30E-06,1.183393081
-6.28E-06,1.183058694
-6.26E-06,1.182055534
-6.24E-06,1.181052374
-6.22E-06,1.179046055
-6.20E-06,1.177708508
-6.18E-06,1.175033415
-6.16E-06,1.172692708
-6.14E-06,1.170352002
-6.12E-06,1.167342522
-6.10E-06,1.164333042
-6.08E-06,1.161657949
-6.06E-06,1.158314083
-6.04E-06,1.152963896
-6.02E-06,1.149954417
-6.00E-06,1.14460423
-5.98E-06,1.139254044
-5.96E-06,1.134907018
-5.94E-06,1.129556831
-5.92E-06,1.123872258
-5.90E-06,1.117853299
-5.88E-06,1.111499953
-5.86E-06,1.10581538
-5.84E-06,1.100465193
-5.82E-06,1.093108687
-5.80E-06,1.086086568
-5.78E-06,1.080067608
-5.76E-06,1.070704782
-5.74E-06,1.064685822
-5.72E-06,1.055322996
-5.70E-06,1.048635263
-5.68E-06,1.039941211
-5.66E-06,1.031915931
-5.64E-06,1.022218719
-5.62E-06,1.014527826
-5.60E-06,1.005165
-5.58E-06,0.995467787
-5.56E-06,0.986773734
-5.54E-06,0.977745295
-5.52E-06,0.967044922
-5.50E-06,0.957013323
-5.48E-06,0.94631295
-5.46E-06,0.936950124
-5.44E-06,0.927252912
-5.42E-06,0.914211833
-5.40E-06,0.904180233
-5.38E-06,0.892142314
-5.36E-06,0.882110715
-5.34E-06,0.870741569
-5.32E-06,0.859372423
-5.30E-06,0.847334504
-5.28E-06,0.836299745
-5.26E-06,0.824596212
-5.24E-06,0.812892679
-5.22E-06,0.798179667
-5.20E-06,0.787144908
-5.18E-06,0.774103829
-5.16E-06,0.761397136
-5.14E-06,0.748356057
-5.12E-06,0.735649365
-5.10E-06,0.723277059
-5.08E-06,0.709901593
-5.06E-06,0.696860514
-5.04E-06,0.683819435
-5.02E-06,0.670778356
-5.00E-06,0.657068503
-4.98E-06,0.643024264
-4.96E-06,0.629314412
-4.94E-06,0.614935786
-4.92E-06,0.601560321
-4.90E-06,0.587850468
-4.88E-06,0.572803069
-4.86E-06,0.559427603
-4.84E-06,0.545383364
-4.82E-06,0.531004739
-4.80E-06,0.517629273
-4.78E-06,0.503250647
-4.76E-06,0.489540795
-4.74E-06,0.472821463
-4.72E-06,0.458777224
-4.70E-06,0.445067371
-4.68E-06,0.430688745
-4.66E-06,0.415641346
-4.64E-06,0.401262721
-4.62E-06,0.385880935
-4.60E-06,0.372171083
-4.58E-06,0.357123684
-4.56E-06,0.343079445
-4.54E-06,0.328700819
-4.52E-06,0.314322193
-4.50E-06,0.299274794
-4.48E-06,0.283893009
-4.46E-06,0.269514383
-4.44E-06,0.255470144
-4.42E-06,0.239753972
-4.40E-06,0.225375346
-4.38E-06,0.210327947
-4.36E-06,0.196618095
-4.34E-06,0.180233149
-4.32E-06,0.16618891
-4.30E-06,0.152144671
-4.28E-06,0.136762885
-4.26E-06,0.12338742
-4.24E-06,0.108674407
-4.22E-06,0.093961395
-4.20E-06,0.078913996
-4.18E-06,0.063866597
-4.16E-06,0.051494291
-4.14E-06,0.037784439
-4.12E-06,0.023405813
-4.10E-06,0.008358414
-4.08E-06,-0.005351438
-4.06E-06,-0.019061291
-4.04E-06,-0.033439916
-4.02E-06,-0.047149769
-4.00E-06,-0.059856461
-3.98E-06,-0.07590702
-3.96E-06,-0.088948099
-3.94E-06,-0.101989178
-3.92E-06,-0.115364644
-3.90E-06,-0.129408883
-3.88E-06,-0.142115576
-3.86E-06,-0.154153495
-3.84E-06,-0.167528961
-3.82E-06,-0.180235653
-3.80E-06,-0.193945505
-3.78E-06,-0.205983425
-3.76E-06,-0.218021344
-3.74E-06,-0.231062423
-3.72E-06,-0.242097182
-3.70E-06,-0.255807035
-3.68E-06,-0.267844954
-3.66E-06,-0.279882873
-3.64E-06,-0.292589565
-3.62E-06,-0.303624325
-3.60E-06,-0.315327857
-3.58E-06,-0.326697003
-3.56E-06,-0.337731762
-3.54E-06,-0.349435295
-3.52E-06,-0.361138827
-3.50E-06,-0.371504813
-3.48E-06,-0.382539573
-3.46E-06,-0.392571172
-3.44E-06,-0.403605931
-3.42E-06,-0.413303144
-3.40E-06,-0.42467229
-3.38E-06,-0.434369502
-3.36E-06,-0.444066715
-3.34E-06,-0.454098314
-3.32E-06,-0.46346114
-3.30E-06,-0.47248958
-3.28E-06,-0.482186792
-3.26E-06,-0.491215232
-3.24E-06,-0.500578058
-3.22E-06,-0.509606497
-3.20E-06,-0.517966163
-3.18E-06,-0.526325829
-3.16E-06,-0.534351109
-3.14E-06,-0.542376388
-3.12E-06,-0.550736054
-3.10E-06,-0.558092561
-3.08E-06,-0.566786613
-3.06E-06,-0.572471186
-3.04E-06,-0.580496466
-3.02E-06,-0.587184199
-3.00E-06,-0.595209478
-2.98E-06,-0.601897211
-2.96E-06,-0.607581784
-2.94E-06,-0.614603903
-2.92E-06,-0.620622863
-2.90E-06,-0.627644983
-2.88E-06,-0.634332715
-2.86E-06,-0.638679742
-2.84E-06,-0.644698701
-2.82E-06,-0.649380114
-2.80E-06,-0.654730301
-2.78E-06,-0.659411714
-2.76E-06,-0.664093127
-2.74E-06,-0.669108926
-2.72E-06,-0.67278718
-2.70E-06,-0.677134206
-2.68E-06,-0.681481232
-2.66E-06,-0.684825099
-2.64E-06,-0.689506512
-2.62E-06,-0.691178445
-2.60E-06,-0.695525471
-2.58E-06,-0.697866178
-2.56E-06,-0.701210044
-2.54E-06,-0.704219524
-2.52E-06,-0.706225844
-2.50E-06,-0.70856655
-2.48E-06,-0.711241644
-2.46E-06,-0.71358235
-2.44E-06,-0.715923057
-2.42E-06,-0.717260603
-2.40E-06,-0.71859815
-2.38E-06,-0.720938856
-2.36E-06,-0.72160763
-2.34E-06,-0.72160763
-2.32E-06,-0.72160763
-2.30E-06,-0.723279563
-2.28E-06,-0.723613949
-2.26E-06,-0.723279563
-2.24E-06,-0.722610789
-2.22E-06,-0.724282723
-2.20E-06,-0.723279563
-2.18E-06,-0.722276403
-2.16E-06,-0.721942016
-2.14E-06,-0.722610789
-2.12E-06,-0.72060447
-2.10E-06,-0.71960131
-2.08E-06,-0.718263763
-2.06E-06,-0.716926217
-2.04E-06,-0.71558867
-2.02E-06,-0.712244804
-2.00E-06,-0.710907257
-1.98E-06,-0.709235324
-1.96E-06,-0.70756339
-1.94E-06,-0.704888297
-1.92E-06,-0.702213204
-1.90E-06,-0.699203724
-1.88E-06,-0.697531791
-1.86E-06,-0.694187925
-1.84E-06,-0.690175285
-1.82E-06,-0.686497032
-1.80E-06,-0.683487552
-1.78E-06,-0.679809299
-1.76E-06,-0.675127886
-1.74E-06,-0.67178402
-1.72E-06,-0.66777138
-1.70E-06,-0.663424353
-1.68E-06,-0.660414874
-1.66E-06,-0.654395914
-1.64E-06,-0.649380114
-1.62E-06,-0.644698701
-1.60E-06,-0.639348515
-1.58E-06,-0.634667102
-1.56E-06,-0.629985689
-1.54E-06,-0.62396673
-1.52E-06,-0.61895093
-1.50E-06,-0.612597584
-1.48E-06,-0.606578624
-1.46E-06,-0.600894051
-1.44E-06,-0.595209478
-1.42E-06,-0.588856132
-1.40E-06,-0.582168399
-1.38E-06,-0.576818213
-1.36E-06,-0.57113364
-1.34E-06,-0.564445907
-1.32E-06,-0.558761334
-1.30E-06,-0.550736054
-1.28E-06,-0.544382708
-1.26E-06,-0.537026202
-1.24E-06,-0.529669696
-1.22E-06,-0.523650736
-1.20E-06,-0.51729739
-1.18E-06,-0.509272111
-1.16E-06,-0.501246831
-1.14E-06,-0.493890325
-1.12E-06,-0.487536979
-1.10E-06,-0.478842926
-1.08E-06,-0.472155193
-1.06E-06,-0.463126754
-1.04E-06,-0.456439021
-1.02E-06,-0.448413741
-1.00E-06,-0.439719689
-9.83E-07,-0.431694409
-9.63E-07,-0.42366913
-9.43E-07,-0.41564385
-9.23E-07,-0.406281024
-9.03E-07,-0.398590131
-8.83E-07,-0.390230465
-8.63E-07,-0.381870799
-8.43E-07,-0.37484868
-8.23E-07,-0.36582024
-8.03E-07,-0.357460574
-7.83E-07,-0.348097748
-7.63E-07,-0.339069309
-7.43E-07,-0.331044029
-7.23E-07,-0.321681203
-7.03E-07,-0.314324697
-6.83E-07,-0.305296258
-6.63E-07,-0.295264659
-6.43E-07,-0.286570606
-6.23E-07,-0.277876553
-6.03E-07,-0.2691825
-5.83E-07,-0.260154061
-5.63E-07,-0.250122462
-5.43E-07,-0.242097182
-5.23E-07,-0.233403129
-5.03E-07,-0.22537785
-4.83E-07,-0.215680637
-4.63E-07,-0.206317811
-4.43E-07,-0.197958145
-4.23E-07,-0.188595319
-4.03E-07,-0.179232493
-3.83E-07,-0.170204054
-3.63E-07,-0.160172454
-3.43E-07,-0.152147175
-3.23E-07,-0.143453122
-3.03E-07,-0.133087136
-2.83E-07,-0.124393083
-2.63E-07,-0.116033417
-2.43E-07,-0.107673751
-2.23E-07,-0.098979699
-2.03E-07,-0.088948099
-1.83E-07,-0.08092282
-1.63E-07,-0.071225607
-1.43E-07,-0.063200328
-1.23E-07,-0.053168728
-1.03E-07,-0.044809062
-8.33E-08,-0.035446236
-6.33E-08,-0.028758503
-4.33E-08,-0.018726904
-2.33E-08,-0.010032851
-3.33E-09,-0.001673185
1.67E-08,0.008358414
3.67E-08,0.01571492
5.67E-08,0.02474336
7.67E-08,0.033771799
9.67E-08,0.043134625
1.17E-07,0.050156745
1.37E-07,0.059519571
1.57E-07,0.06654169
1.77E-07,0.074901356
1.97E-07,0.083595409
2.17E-07,0.090951915
2.37E-07,0.098308421
2.57E-07,0.107002474
2.77E-07,0.11536214
2.97E-07,0.124056193
3.17E-07,0.132081472
3.37E-07,0.138434819
3.57E-07,0.146794485
3.77E-07,0.154819764
3.97E-07,0.161841884
4.17E-07,0.168864003
4.37E-07,0.175886123
4.57E-07,0.183577016
4.77E-07,0.189595975
4.97E-07,0.198624415
5.17E-07,0.203640214
5.37E-07,0.211665494
5.57E-07,0.21801884
5.77E-07,0.225709733
5.97E-07,0.231394306
6.17E-07,0.238750812
6.37E-07,0.244769771
6.57E-07,0.252126278
6.77E-07,0.25881401
6.97E-07,0.264498583
7.17E-07,0.271186316
7.37E-07,0.276870889
7.57E-07,0.283224235
7.77E-07,0.288574422
7.97E-07,0.293590221
8.17E-07,0.298606021
8.37E-07,0.304624981
8.57E-07,0.311312714
8.77E-07,0.314322193
8.97E-07,0.321344313
9.17E-07,0.327028886
9.37E-07,0.331041526
9.57E-07,0.337394872
9.77E-07,0.341741898
9.97E-07,0.346423311
1.02E-06,0.351439111
1.04E-06,0.354782977
1.06E-06,0.360801937
1.08E-06,0.364145803
1.10E-06,0.369161603
1.12E-06,0.373843016
1.14E-06,0.376183723
1.16E-06,0.381199522
1.18E-06,0.385212162
1.20E-06,0.389559188
1.22E-06,0.392568668
1.24E-06,0.394909375
1.26E-06,0.397584468
1.28E-06,0.402265881
1.30E-06,0.404272201
1.32E-06,0.408953614
1.34E-06,0.409956774
1.36E-06,0.413635027
1.38E-06,0.415641346
1.40E-06,0.419653986
1.42E-06,0.420991533
1.44E-06,0.424335399
1.46E-06,0.425338559
1.48E-06,0.427679266
1.50E-06,0.430019972
1.52E-06,0.431023132
1.54E-06,0.434032612
1.56E-06,0.435370158
1.58E-06,0.437042092
1.60E-06,0.439048412
1.62E-06,0.440720345
1.64E-06,0.440720345
1.66E-06,0.441723505
1.68E-06,0.442726665
1.70E-06,0.443729825
1.72E-06,0.444398598
1.74E-06,0.445401758
1.76E-06,0.445736144
1.78E-06,0.445401758
1.80E-06,0.446404918
1.82E-06,0.446404918
1.84E-06,0.446404918
1.86E-06,0.447073691
1.88E-06,0.446404918
1.90E-06,0.447408078
1.92E-06,0.446070531
1.94E-06,0.445401758
1.96E-06,0.445736144
1.98E-06,0.445067371
2.00E-06,0.444398598
2.02E-06,0.443729825
2.04E-06,0.442726665
2.06E-06,0.441054731
2.08E-06,0.440385958
2.10E-06,0.439382798
2.12E-06,0.438714025
2.14E-06,0.435370158
2.16E-06,0.435704545
2.18E-06,0.433363839
2.20E-06,0.432026292
2.22E-06,0.429351199
2.24E-06,0.428013652
2.26E-06,0.427010492
2.28E-06,0.424001013
2.30E-06,0.421660306
2.32E-06,0.4193196
2.34E-06,0.41731328
2.36E-06,0.41530696
2.38E-06,0.411628707
2.40E-06,0.41029116
2.42E-06,0.407616067
2.44E-06,0.403937814
2.46E-06,0.399925174
2.48E-06,0.399256401
2.50E-06,0.395243761
2.52E-06,0.391899895
2.54E-06,0.389559188
2.56E-06,0.385880935
2.58E-06,0.382537069
2.60E-06,0.378190042
2.62E-06,0.375514949
2.64E-06,0.372171083
2.66E-06,0.368158443
2.68E-06,0.36347703
2.70E-06,0.360133164
2.72E-06,0.356789297
2.74E-06,0.353111044
2.76E-06,0.349098404
2.78E-06,0.344082605
2.80E-06,0.339401192
2.82E-06,0.335722939
2.84E-06,0.331710299
2.86E-06,0.328032046
2.88E-06,0.324019406
2.90E-06,0.317331673
2.92E-06,0.314990967
2.94E-06,0.309306394
2.96E-06,0.304624981
2.98E-06,0.299943568
3.00E-06,0.295596541
3.02E-06,0.290915128
3.04E-06,0.287905649
3.06E-06,0.281217916
3.08E-06,0.277539663
3.10E-06,0.272523863
3.12E-06,0.267173677
3.14E-06,0.262157877
3.16E-06,0.257476464
3.18E-06,0.252126278
3.20E-06,0.247110478
3.22E-06,0.241760292
3.24E-06,0.236744492
3.26E-06,0.231394306
3.28E-06,0.226378506
3.30E-06,0.221362706
3.32E-06,0.215678133
3.34E-06,0.21099672
3.36E-06,0.206649694
3.38E-06,0.199293188
3.40E-06,0.194946161
3.42E-06,0.189261589
3.44E-06,0.183242629
3.46E-06,0.179229989
3.48E-06,0.172542256
3.50E-06,0.167526457
3.52E-06,0.161507497
3.54E-06,0.156491697
3.56E-06,0.150807124
3.58E-06,0.147128871
3.60E-06,0.139772365
3.62E-06,0.134087792
3.64E-06,0.129071993
3.66E-06,0.12439058
3.68E-06,0.117034073
3.70E-06,0.11235266
3.72E-06,0.107002474
3.74E-06,0.100314741
3.76E-06,0.095967715
3.78E-06,0.090951915
3.80E-06,0.084932956
3.82E-06,0.077242063
3.84E-06,0.072895036
3.86E-06,0.06854801
3.88E-06,0.062194664
3.90E-06,0.056844478
3.92E-06,0.051159905
3.94E-06,0.045475332
3.96E-06,0.039790759
3.98E-06,0.035109346
4.00E-06,0.029759159
4.02E-06,0.0237402
4.04E-06,0.019058787
4.06E-06,0.0137086
4.08E-06,0.008358414
4.10E-06,0.003677001
4.12E-06,-0.003010732
4.14E-06,-0.008360918
4.16E-06,-0.014045491
4.18E-06,-0.018726904
4.20E-06,-0.022405157
4.22E-06,-0.02808973
4.24E-06,-0.033774303
4.26E-06,-0.037786943
4.28E-06,-0.044140289
4.30E-06,-0.048821702
4.32E-06,-0.053837502
4.34E-06,-0.058518915
4.36E-06,-0.063534714
4.38E-06,-0.067547354
4.40E-06,-0.07189438
4.42E-06,-0.077578953
4.44E-06,-0.081591593
4.46E-06,-0.086607393
4.48E-06,-0.090954419
4.50E-06,-0.096304605
4.52E-06,-0.100651632
4.54E-06,-0.106001818
4.56E-06,-0.110683231
4.58E-06,-0.114027098
4.60E-06,-0.118708511
4.62E-06,-0.12272115
4.64E-06,-0.12673379
4.66E-06,-0.131080816
4.68E-06,-0.135762229
4.70E-06,-0.139106096
4.72E-06,-0.143118736
4.74E-06,-0.146796989
4.76E-06,-0.151478402
4.78E-06,-0.155491041
4.80E-06,-0.158166135
4.82E-06,-0.163850707
4.84E-06,-0.165857027
4.86E-06,-0.16953528
4.88E-06,-0.173882307
4.90E-06,-0.176891787
4.92E-06,-0.181238813
4.94E-06,-0.183245133
4.96E-06,-0.188260932
4.98E-06,-0.190601639
5.00E-06,-0.193611119
5.02E-06,-0.196620599
5.04E-06,-0.200633238
5.06E-06,-0.204311491
5.08E-06,-0.207320971
5.10E-06,-0.208992904
5.12E-06,-0.212336771
5.14E-06,-0.215680637
5.16E-06,-0.21835573
5.18E-06,-0.219693277
5.20E-06,-0.22236837
5.22E-06,-0.22537785
5.24E-06,-0.228052943
5.26E-06,-0.23039365
5.28E-06,-0.232734356
5.30E-06,-0.235075063
5.32E-06,-0.236078223
5.34E-06,-0.239422089
5.36E-06,-0.240425249
5.38E-06,-0.243769115
5.40E-06,-0.244437889
5.42E-06,-0.247112982
5.44E-06,-0.248784915
5.46E-06,-0.249119302
5.48E-06,-0.250791235
5.50E-06,-0.252797555
5.52E-06,-0.254803875
5.54E-06,-0.256475808
5.56E-06,-0.258147741
5.58E-06,-0.259150901
5.60E-06,-0.260488448
5.62E-06,-0.261491607
5.64E-06,-0.262829154
5.66E-06,-0.263832314
5.68E-06,-0.263832314
5.70E-06,-0.266173021
5.72E-06,-0.264835474
5.74E-06,-0.266841794
5.76E-06,-0.266841794
5.78E-06,-0.268513727
5.80E-06,-0.267844954
5.82E-06,-0.268513727
5.84E-06,-0.269516887
5.86E-06,-0.2691825
5.88E-06,-0.269851274
5.90E-06,-0.269516887
5.92E-06,-0.270854434
5.94E-06,-0.2691825
5.96E-06,-0.2691825
5.98E-06,-0.27018566
6.00E-06,-0.268848114
6.02E-06,-0.268513727
6.04E-06,-0.2691825
6.06E-06,-0.268848114
6.08E-06,-0.269516887
6.10E-06,-0.268513727
6.12E-06,-0.26717618
6.14E-06,-0.266507407
6.16E-06,-0.266173021
6.18E-06,-0.265838634
6.20E-06,-0.265169861
6.22E-06,-0.264501087
6.24E-06,-0.262160381
6.26E-06,-0.262160381
6.28E-06,-0.261491607
6.30E-06,-0.261157221
6.32E-06,-0.259150901
6.34E-06,-0.258482128
6.36E-06,-0.257144581
6.38E-06,-0.254803875
6.40E-06,-0.252797555
6.42E-06,-0.252797555
6.44E-06,-0.251794395
6.46E-06,-0.248784915
6.48E-06,-0.246778595
6.50E-06,-0.246109822
6.52E-06,-0.244772275
6.54E-06,-0.242765955
6.56E-06,-0.240425249
6.58E-06,-0.238753316
6.60E-06,-0.237415769
6.62E-06,-0.234740676
6.64E-06,-0.233403129
6.66E-06,-0.231062423
6.68E-06,-0.229724876
6.70E-06,-0.227718556
6.72E-06,-0.22537785
6.74E-06,-0.224709077
6.76E-06,-0.22136521
6.78E-06,-0.218690117
6.80E-06,-0.21735257
6.82E-06,-0.214677477
6.84E-06,-0.211333611
6.86E-06,-0.208658518
6.88E-06,-0.206317811
6.90E-06,-0.204645878
6.92E-06,-0.200298852
6.94E-06,-0.199630078
6.96E-06,-0.196620599
6.98E-06,-0.193276732
7.00E-06,-0.190601639
7.02E-06,-0.188260932
7.04E-06,-0.184248293
7.06E-06,-0.182241973
7.08E-06,-0.179901266
7.10E-06,-0.176223013
7.12E-06,-0.17455108
7.14E-06,-0.170204054
7.16E-06,-0.167528961
7.18E-06,-0.166525801
7.20E-06,-0.163516321
7.22E-06,-0.158500521
7.24E-06,-0.155825428
7.26E-06,-0.153150335
7.28E-06,-0.150475242
7.30E-06,-0.147131375
7.32E-06,-0.143787509
7.34E-06,-0.140109256
7.36E-06,-0.137099776
7.38E-06,-0.135093456
7.40E-06,-0.130077656
7.42E-06,-0.127068177
7.44E-06,-0.12372431
7.46E-06,-0.122052377
7.48E-06,-0.118374124
7.50E-06,-0.115030257
7.52E-06,-0.111686391
7.54E-06,-0.108008138
7.56E-06,-0.104998658
7.58E-06,-0.100986018
7.60E-06,-0.097976539
7.62E-06,-0.094967059
7.64E-06,-0.091957579
7.66E-06,-0.088613713
7.68E-06,-0.084935459
7.70E-06,-0.083263526
7.72E-06,-0.0789165
7.74E-06,-0.07490386
7.76E-06,-0.071559994
7.78E-06,-0.067547354
7.80E-06,-0.064537874
7.82E-06,-0.060859621
7.84E-06,-0.058184528
7.86E-06,-0.054506275
7.88E-06,-0.050828022
7.90E-06,-0.048152929
7.92E-06,-0.043805902
7.94E-06,-0.041130809
7.96E-06,-0.036115009
7.98E-06,-0.033774303
8.00E-06,-0.03009605
8.02E-06,-0.026417797
8.04E-06,-0.02307393
8.06E-06,-0.02106761
8.08E-06,-0.017054971
8.10E-06,-0.014045491
8.12E-06,-0.012039171
8.14E-06,-0.007692145
8.16E-06,-0.003010732
8.18E-06,-0.001004412
8.20E-06,0.002339455
8.22E-06,0.005683321
8.24E-06,0.009361574
8.26E-06,0.011702281
8.28E-06,0.014042987
8.30E-06,0.019058787
8.32E-06,0.02173388
8.34E-06,0.023405813
8.36E-06,0.027418453
8.38E-06,0.029090386
8.40E-06,0.032768639
8.42E-06,0.036446892
8.44E-06,0.039790759
8.46E-06,0.042800238
8.48E-06,0.046144105
8.50E-06,0.049487971
8.52E-06,0.051828678
8.54E-06,0.055172544
8.56E-06,0.057178864
8.58E-06,0.060522731
8.60E-06,0.064200984
8.62E-06,0.066207304
8.64E-06,0.068882397
8.66E-06,0.071891877
8.68E-06,0.074232583
8.70E-06,0.076238903
8.72E-06,0.079582769
8.74E-06,0.082257862
8.76E-06,0.084598569
8.78E-06,0.087608049
8.80E-06,0.089279982
8.82E-06,0.092623848
8.84E-06,0.094964555
8.86E-06,0.096636488
8.88E-06,0.099645968
8.90E-06,0.101652288
8.92E-06,0.104327381
8.94E-06,0.106333701
8.96E-06,0.108674407
8.98E-06,0.110011954
9.00E-06,0.113021434
9.02E-06,0.116030914
9.04E-06,0.11736846
9.06E-06,0.118037233
9.08E-06,0.120712327
9.10E-06,0.124724966
9.12E-06,0.12338742
9.14E-06,0.127734446
9.16E-06,0.128737606
9.18E-06,0.130743926
9.20E-06,0.132081472
9.22E-06,0.133753406
9.24E-06,0.135425339
9.26E-06,0.137431659
9.28E-06,0.137431659
9.30E-06,0.141109912
9.32E-06,0.141109912
9.34E-06,0.143450618
9.36E-06,0.144788165
9.38E-06,0.146125711
9.40E-06,0.147797645
9.42E-06,0.148800805
9.44E-06,0.149803965
9.46E-06,0.151810284
9.48E-06,0.153482218
9.50E-06,0.153482218
9.52E-06,0.155488538
9.54E-06,0.155822924
9.56E-06,0.157494857
9.58E-06,0.158498017
9.60E-06,0.159501177
9.62E-06,0.160504337
9.64E-06,0.160169951
9.66E-06,0.16217627
9.68E-06,0.162510657
9.70E-06,0.163848204
9.72E-06,0.163848204
9.74E-06,0.165520137
9.76E-06,0.165520137
9.78E-06,0.16618891
9.80E-06,0.166523297
9.82E-06,0.16719207
9.84E-06,0.16819523
9.86E-06,0.167860843
9.88E-06,0.167860843
9.90E-06,0.166857683
9.92E-06,0.16919839
9.94E-06,0.16919839
9.96E-06,0.169532777
9.98E-06,0.168864003
1.00E-05,0.16919839
1.00E-05,0.168529617
1.00E-05,0.168864003
1.01E-05,0.168864003
1.01E-05,0.169867163
1.01E-05,0.169867163
1.01E-05,0.168864003
1.01E-05,0.16919839
1.02E-05,0.169532777
1.02E-05,0.168529617
1.02E-05,0.167860843
1.02E-05,0.167860843
1.02E-05,0.166857683
1.03E-05,0.168529617
1.03E-05,0.166857683
1.03E-05,0.166523297
1.03E-05,0.164851364
1.03E-05,0.165520137
1.04E-05,0.164516977
1.04E-05,0.16317943
1.04E-05,0.16418259
1.04E-05,0.162845044
1.04E-05,0.16217627
1.05E-05,0.160838724
1.05E-05,0.160838724
1.05E-05,0.158498017
1.05E-05,0.158163631
1.05E-05,0.157494857
1.06E-05,0.156491697
1.06E-05,0.156491697
1.06E-05,0.153816604
1.06E-05,0.153816604
1.06E-05,0.152479058
1.07E-05,0.151141511
1.07E-05,0.149135191
1.07E-05,0.149803965
1.07E-05,0.146794485
1.07E-05,0.146794485
1.08E-05,0.145122552
1.08E-05,0.143785005
1.08E-05,0.143785005
1.08E-05,0.142113072
1.08E-05,0.140106752
1.09E-05,0.138769205
1.09E-05,0.138100432
1.09E-05,0.135425339
1.09E-05,0.134756566
1.09E-05,0.133084632
1.10E-05,0.131412699
1.10E-05,0.128403219
1.10E-05,0.128068833
1.10E-05,0.125728126
1.10E-05,0.125059353
1.11E-05,0.123053033
1.11E-05,0.122718646
1.11E-05,0.119709167
1.11E-05,0.11837162
1.11E-05,0.11736846
1.12E-05,0.115696527
1.12E-05,0.114024594
1.12E-05,0.112018274
1.12E-05,0.110011954
1.12E-05,0.107671247
1.13E-05,0.107002474
1.13E-05,0.103992994
1.13E-05,0.103992994
1.13E-05,0.099980355
1.13E-05,0.098308421
1.14E-05,0.096970875
1.14E-05,0.094630168
1.14E-05,0.092289462
1.14E-05,0.090951915
1.14E-05,0.088945595
1.15E-05,0.087273662
1.15E-05,0.085267342
1.15E-05,0.083929796
1.15E-05,0.080920316
1.15E-05,0.080251543
1.16E-05,0.077910836
1.16E-05,0.075235743
1.16E-05,0.07356381
1.16E-05,0.070219943
1.16E-05,0.06955117
1.17E-05,0.06754485
1.17E-05,0.06453537
1.17E-05,0.06252905
1.17E-05,0.060522731
1.17E-05,0.057847637
1.18E-05,0.057513251
1.18E-05,0.054503771
1.18E-05,0.052497451
1.18E-05,0.051494291
1.18E-05,0.048484811
1.19E-05,0.045475332
1.19E-05,0.045475332
1.19E-05,0.042800238
1.19E-05,0.039790759
1.19E-05,0.038453212
1.20E-05,0.035443732
1.20E-05,0.033437412
1.20E-05,0.032768639
1.20E-05,0.029759159
1.20E-05,0.02775284
1.21E-05,0.025412133
1.21E-05,0.022402653
1.21E-05,0.020396333
1.21E-05,0.01972756
1.21E-05,0.018055627
1.22E-05,0.015046147
1.22E-05,0.013374214
1.22E-05,0.012371054
1.22E-05,0.008692801
1.22E-05,0.006017708
1.23E-05,0.006352094
1.23E-05,0.003677001
1.23E-05,-1.25E-06
1.23E-05,-0.001673185
1.23E-05,-0.002676345
1.24E-05,-0.005017052
1.24E-05,-0.007357758
1.24E-05,-0.009364078
1.24E-05,-0.010701625
1.24E-05,-0.012707944
1.25E-05,-0.015048651
1.25E-05,-0.017723744
1.25E-05,-0.019061291
1.25E-05,-0.020064451
1.25E-05,-0.021736384
1.26E-05,-0.02407709
1.26E-05,-0.026752183
1.26E-05,-0.02909289
1.26E-05,-0.029427277
1.26E-05,-0.03109921
1.27E-05,-0.032771143
1.27E-05,-0.034777463
1.27E-05,-0.036783783
1.27E-05,-0.036783783
1.27E-05,-0.041465196
1.28E-05,-0.042802742
1.28E-05,-0.043137129
1.28E-05,-0.045477836
1.28E-05,-0.046815382
1.28E-05,-0.048821702
1.29E-05,-0.050828022
1.29E-05,-0.051831182
1.29E-05,-0.052834342
1.29E-05,-0.054840662
1.29E-05,-0.055175048
1.30E-05,-0.056178208
1.30E-05,-0.060190848
1.30E-05,-0.061194008
1.30E-05,-0.061862781
1.30E-05,-0.061528394
1.31E-05,-0.064537874
1.31E-05,-0.066544194
1.31E-05,-0.067547354
1.31E-05,-0.068884901
1.31E-05,-0.068884901
1.32E-05,-0.07089122
1.32E-05,-0.071559994
1.32E-05,-0.072563154
1.32E-05,-0.0739007
1.32E-05,-0.075572633
1.33E-05,-0.07590702
1.33E-05,-0.077578953
1.33E-05,-0.07791334
1.33E-05,-0.07991966
1.33E-05,-0.079250887
1.34E-05,-0.081257206
1.34E-05,-0.082594753
1.34E-05,-0.0839323
1.34E-05,-0.085269846
1.34E-05,-0.086273006
1.35E-05,-0.085604233
1.35E-05,-0.089282486
1.35E-05,-0.087610553
1.35E-05,-0.089951259
1.35E-05,-0.090954419
1.36E-05,-0.090954419
1.36E-05,-0.091623192
1.36E-05,-0.091957579
1.36E-05,-0.092626352
1.36E-05,-0.093629512
1.37E-05,-0.094298286
1.37E-05,-0.094298286
1.37E-05,-0.094967059
1.37E-05,-0.095301445
1.37E-05,-0.094967059
1.38E-05,-0.095301445
1.38E-05,-0.095301445
1.38E-05,-0.096638992
1.38E-05,-0.097307765
1.38E-05,-0.097642152
1.39E-05,-0.097307765
1.39E-05,-0.097307765
1.39E-05,-0.098979699
1.39E-05,-0.099314085
1.39E-05,-0.098645312
1.40E-05,-0.098645312
1.40E-05,-0.099314085
1.40E-05,-0.099314085
1.40E-05,-0.099314085
1.40E-05,-0.099314085
1.41E-05,-0.099648472
1.41E-05,-0.099982858
1.41E-05,-0.099648472
1.41E-05,-0.099648472
1.41E-05,-0.099648472
1.42E-05,-0.100317245
1.42E-05,-0.099648472
1.42E-05,-0.098645312
1.42E-05,-0.098645312
1.42E-05,-0.098979699
1.43E-05,-0.098979699
1.43E-05,-0.098310925
1.43E-05,-0.098979699
1.43E-05,-0.098979699
1.43E-05,-0.099982858
1.44E-05,-0.098310925
1.44E-05,-0.097976539
1.44E-05,-0.097307765
1.44E-05,-0.097307765
1.44E-05,-0.097307765
1.45E-05,-0.096638992
1.45E-05,-0.095970219
1.45E-05,-0.095970219
1.45E-05,-0.094632672
1.45E-05,-0.095970219
1.46E-05,-0.094967059
1.46E-05,-0.094967059
1.46E-05,-0.094967059
1.46E-05,-0.093295126
1.46E-05,-0.092626352
1.47E-05,-0.091957579
1.47E-05,-0.091288806
1.47E-05,-0.089951259
1.47E-05,-0.090620032
1.47E-05,-0.088279326
1.48E-05,-0.088948099
1.48E-05,-0.088613713
1.48E-05,-0.087944939
1.48E-05,-0.086607393
1.48E-05,-0.086607393
1.49E-05,-0.085269846
1.49E-05,-0.084266686
1.49E-05,-0.0839323
1.49E-05,-0.08292914
1.49E-05,-0.080588433
1.50E-05,-0.080254046
1.50E-05,-0.079585273
1.50E-05,-0.079250887
1.50E-05,-0.079250887
1.50E-05,-0.07791334
1.51E-05,-0.076241407
1.51E-05,-0.075572633
1.51E-05,-0.074235087
1.51E-05,-0.073231927
1.51E-05,-0.073566314
1.52E-05,-0.071225607
1.52E-05,-0.071225607
1.52E-05,-0.069888061
1.52E-05,-0.067881741
1.52E-05,-0.067881741
1.53E-05,-0.066544194
1.53E-05,-0.064537874
1.53E-05,-0.063869101
1.53E-05,-0.063869101
1.53E-05,-0.061528394
1.54E-05,-0.062197168
1.54E-05,-0.060525234
1.54E-05,-0.057850141
1.54E-05,-0.057850141
1.54E-05,-0.055509435
1.55E-05,-0.055843821
1.55E-05,-0.054171888
1.55E-05,-0.052834342
1.55E-05,-0.051831182
1.55E-05,-0.050159249
1.56E-05,-0.049490475
1.56E-05,-0.048821702
1.56E-05,-0.046146609
1.56E-05,-0.045812222
1.56E-05,-0.044474676
1.57E-05,-0.042133969
1.57E-05,-0.042468356
1.57E-05,-0.040462036
1.57E-05,-0.039458876
1.57E-05,-0.039124489
1.58E-05,-0.037452556
1.58E-05,-0.035446236
1.58E-05,-0.03410869
1.58E-05,-0.03310553
1.58E-05,-0.031767983
1.59E-05,-0.030764823
1.59E-05,-0.028758503
1.59E-05,-0.027755343
1.59E-05,-0.02608341
1.59E-05,-0.02508025
1.60E-05,-0.024745864
1.60E-05,-0.02207077
1.60E-05,-0.021401997
1.60E-05,-0.020398837
1.60E-05,-0.018726904
1.61E-05,-0.017723744
1.61E-05,-0.015717424
1.61E-05,-0.016051811
1.61E-05,-0.014045491
1.61E-05,-0.012373558
1.62E-05,-0.010701625
1.62E-05,-0.010032851
1.62E-05,-0.008695305
1.62E-05,-0.008360918
1.62E-05,-0.006688985
1.63E-05,-0.005351438
1.63E-05,-0.003679505
1.63E-05,-0.002007572
1.63E-05,-0.001004412
1.63E-05,-0.000335639
1.64E-05,0.001670681
1.64E-05,0.002005068
1.64E-05,0.004345774
1.64E-05,0.004680161
1.64E-05,0.006017708
1.65E-05,0.007355254
1.65E-05,0.008024028
1.65E-05,0.009027187
1.65E-05,0.010364734
1.65E-05,0.012705441
1.66E-05,0.0137086
1.66E-05,0.015380534
1.66E-05,0.01471176
1.66E-05,0.016383694
1.66E-05,0.017386854
1.67E-05,0.018390013
1.67E-05,0.019393173
1.67E-05,0.021399493
1.67E-05,0.022402653
1.67E-05,0.02273704
1.68E-05,0.024074586
1.68E-05,0.023405813
1.68E-05,0.028421613
1.68E-05,0.025077746
1.68E-05,0.026415293
1.69E-05,0.028087226
1.69E-05,0.030427933
1.69E-05,0.031431093
1.69E-05,0.032768639
1.69E-05,0.032768639
1.70E-05,0.034106186
1.70E-05,0.035778119
1.70E-05,0.036781279
1.70E-05,0.037115666
1.70E-05,0.037450052
1.71E-05,0.038453212
1.71E-05,0.040125145
1.71E-05,0.040793919
1.71E-05,0.041128305
1.71E-05,0.043803398
1.72E-05,0.043134625
1.72E-05,0.043469012
1.72E-05,0.044806558
1.72E-05,0.045475332
1.72E-05,0.046478492
1.73E-05,0.047147265
1.73E-05,0.047147265
1.73E-05,0.049153585
1.73E-05,0.048819198
1.73E-05,0.049822358
1.74E-05,0.050825518
1.74E-05,0.052163065
1.74E-05,0.050825518
1.74E-05,0.053500611
1.74E-05,0.053166224
1.75E-05,0.053834998
1.75E-05,0.055172544
1.75E-05,0.054838158
1.75E-05,0.055172544
1.75E-05,0.056175704
1.76E-05,0.057178864
1.76E-05,0.056844478
1.76E-05,0.057847637
1.76E-05,0.057847637
1.76E-05,0.058182024
1.77E-05,0.058516411
1.77E-05,0.059853957
1.77E-05,0.058850797
1.77E-05,0.060857117
1.77E-05,0.058850797
1.78E-05,0.060857117
1.78E-05,0.060522731
1.78E-05,0.061860277
1.78E-05,0.062194664
1.78E-05,0.060857117
1.79E-05,0.06252905
1.79E-05,0.06252905
1.79E-05,0.063866597
1.79E-05,0.063197824
1.79E-05,0.063197824
1.80E-05,0.06353221
1.80E-05,0.062863437
1.80E-05,0.063866597
1.80E-05,0.063197824
1.80E-05,0.06453537
1.81E-05,0.064869757
1.81E-05,0.063197824
1.81E-05,0.06353221
1.81E-05,0.064869757
1.81E-05,0.065204144
1.82E-05,0.065204144
1.82E-05,0.06453537
1.82E-05,0.064200984
1.82E-05,0.065204144
1.82E-05,0.064200984
1.83E-05,0.065204144
1.83E-05,0.065204144
1.83E-05,0.065204144
1.83E-05,0.064200984
1.83E-05,0.06453537
1.84E-05,0.065204144
1.84E-05,0.065204144
1.84E-05,0.06353221
1.84E-05,0.064200984
1.84E-05,0.06353221
1.85E-05,0.063866597
1.85E-05,0.063197824
1.85E-05,0.062194664
1.85E-05,0.063197824
1.85E-05,0.062194664
1.86E-05,0.062863437
1.86E-05,0.062863437
1.86E-05,0.061191504
1.86E-05,0.06252905
1.86E-05,0.060522731
1.87E-05,0.060857117
1.87E-05,0.060522731
1.87E-05,0.060522731
1.87E-05,0.061191504
1.87E-05,0.059853957
1.88E-05,0.060857117
1.88E-05,0.059519571
1.88E-05,0.058850797
1.88E-05,0.058182024
1.88E-05,0.058182024
1.89E-05,0.058182024
1.89E-05,0.057178864
1.89E-05,0.057178864
1.89E-05,0.055506931
1.89E-05,0.055841318
1.90E-05,0.055841318
1.90E-05,0.055172544
1.90E-05,0.054503771
1.90E-05,0.054169384
1.90E-05,0.054503771
1.91E-05,0.053166224
1.91E-05,0.052497451
1.91E-05,0.052163065
1.91E-05,0.050825518
1.91E-05,0.050491131
1.92E-05,0.051159905
1.92E-05,0.050825518
1.92E-05,0.049487971
1.92E-05,0.049153585
1.92E-05,0.048150425
1.93E-05,0.047481652
1.93E-05,0.047481652
1.93E-05,0.045140945
1.93E-05,0.045809718
1.93E-05,0.045140945
1.94E-05,0.043803398
1.94E-05,0.043134625
1.94E-05,0.042131465
1.94E-05,0.041128305
1.94E-05,0.041797079
1.95E-05,0.041128305
1.95E-05,0.040793919
1.95E-05,0.039456372
1.95E-05,0.037784439
1.95E-05,0.037784439
1.96E-05,0.036446892
1.96E-05,0.036112506
1.96E-05,0.034440572
1.96E-05,0.035443732
1.96E-05,0.034440572
1.97E-05,0.033103026
1.97E-05,0.032768639
1.97E-05,0.031431093
1.97E-05,0.030762319
1.97E-05,0.030427933
1.98E-05,0.029090386
1.98E-05,0.028087226
1.98E-05,0.027418453
1.98E-05,0.02674968
1.98E-05,0.026415293
1.99E-05,0.028421613
1.99E-05,0.025077746
1.99E-05,0.02474336
1.99E-05,0.02273704
1.99E-05,0.024408973
2.00E-05,0.022068267
2.00E-05,0.021065107
2.00E-05,0.020061947
2.00E-05,0.01972756
2.00E-05,0.0187244
2.01E-05,0.018390013
2.01E-05,0.016049307
2.01E-05,0.01671808
2.01E-05,0.016049307
2.01E-05,0.015380534
2.02E-05,0.014042987
2.02E-05,0.013374214
2.02E-05,0.012036667
2.02E-05,0.011367894
2.02E-05,0.011033507
2.03E-05,0.009695961
2.03E-05,0.009361574
2.03E-05,0.009027187
2.03E-05,0.008358414
2.03E-05,0.007689641
2.04E-05,0.008024028
2.04E-05,0.006017708
2.04E-05,0.006017708
2.04E-05,0.004011388
2.04E-05,0.003008228
2.05E-05,0.003008228
2.05E-05,0.002339455
2.05E-05,0.002673841
2.05E-05,0.000667521
2.05E-05,-0.001338799
2.06E-05,-0.001004412
2.06E-05,-0.001673185
2.06E-05,-0.002341958
2.06E-05,-0.004013892
2.06E-05,-0.003345118
2.07E-05,-0.004348278
2.07E-05,-0.006354598
2.07E-05,-0.006354598
2.07E-05,-0.007023371
2.07E-05,-0.007023371
2.08E-05,-0.008360918
2.08E-05,-0.008360918
2.08E-05,-0.009698465
2.08E-05,-0.010701625
2.08E-05,-0.010367238
2.09E-05,-0.011370398
2.09E-05,-0.012039171
2.09E-05,-0.013042331
2.09E-05,-0.012707944
2.09E-05,-0.013042331
2.10E-05,-0.016051811
2.10E-05,-0.014714264
2.10E-05,-0.015383038
2.10E-05,-0.017389357
2.10E-05,-0.017054971
2.11E-05,-0.017723744
2.11E-05,-0.019061291
2.11E-05,-0.020733224
2.11E-05,-0.019730064
2.11E-05,-0.019395677
2.12E-05,-0.020733224
2.12E-05,-0.020398837
2.12E-05,-0.021736384
2.12E-05,-0.021401997
2.12E-05,-0.02307393
2.13E-05,-0.022739544
2.13E-05,-0.02307393
2.13E-05,-0.023408317
2.13E-05,-0.024745864
2.13E-05,-0.02407709
2.14E-05,-0.024745864
2.14E-05,-0.026417797
2.14E-05,-0.025749024
2.14E-05,-0.02708657
2.14E-05,-0.02708657
2.15E-05,-0.02708657
2.15E-05,-0.02708657
2.15E-05,-0.02808973
2.15E-05,-0.028424117
2.15E-05,-0.029427277
2.16E-05,-0.029761663
2.16E-05,-0.03009605
2.16E-05,-0.03009605
2.16E-05,-0.031433596
2.16E-05,-0.031767983
2.17E-05,-0.031433596
2.17E-05,-0.031433596
2.17E-05,-0.031433596
2.17E-05,-0.032771143
2.17E-05,-0.03310553
2.18E-05,-0.03310553
2.18E-05,-0.032771143
2.18E-05,-0.03410869
2.18E-05,-0.03410869
2.18E-05,-0.03410869
2.19E-05,-0.03410869
2.19E-05,-0.03410869
2.19E-05,-0.03410869
2.19E-05,-0.033439916
2.19E-05,-0.034777463
2.20E-05,-0.03511185
2.20E-05,-0.03511185
2.20E-05,-0.035446236
2.20E-05,-0.034777463
2.20E-05,-0.034443076
2.21E-05,-0.034443076
2.21E-05,-0.035446236
2.21E-05,-0.034777463
2.21E-05,-0.035446236
2.21E-05,-0.035446236
2.22E-05,-0.036115009
2.22E-05,-0.03511185
2.22E-05,-0.035780623
2.22E-05,-0.035780623
2.22E-05,-0.035780623
2.23E-05,-0.035780623
2.23E-05,-0.036115009
2.23E-05,-0.036115009
2.23E-05,-0.036449396
2.23E-05,-0.035780623
2.24E-05,-0.035446236
2.24E-05,-0.036115009
2.24E-05,-0.034777463
2.24E-05,-0.036783783
2.24E-05,-0.035780623
2.25E-05,-0.036115009
2.25E-05,-0.035780623
2.25E-05,-0.035780623
2.25E-05,-0.036449396
2.25E-05,-0.03511185
2.26E-05,-0.035446236
2.26E-05,-0.03511185
2.26E-05,-0.035446236
2.26E-05,-0.03511185
2.26E-05,-0.03410869
2.27E-05,-0.03410869
2.27E-05,-0.035446236
2.27E-05,-0.035446236
2.27E-05,-0.03410869
2.27E-05,-0.034443076
2.28E-05,-0.034443076
2.28E-05,-0.033774303
2.28E-05,-0.034443076
2.28E-05,-0.03410869
2.28E-05,-0.033439916
2.29E-05,-0.032436756
2.29E-05,-0.032771143
2.29E-05,-0.033439916
2.29E-05,-0.03210237
2.29E-05,-0.03210237
2.30E-05,-0.031767983
2.30E-05,-0.03109921
2.30E-05,-0.03109921
2.30E-05,-0.031433596
2.30E-05,-0.031767983
2.31E-05,-0.030764823
2.31E-05,-0.03009605
2.31E-05,-0.03109921
2.31E-05,-0.02909289
2.31E-05,-0.028424117
2.32E-05,-0.029761663
2.32E-05,-0.02708657
2.32E-05,-0.028758503
2.32E-05,-0.027755343
2.32E-05,-0.02708657
2.33E-05,-0.026417797
2.33E-05,-0.02608341
2.33E-05,-0.026752183
2.33E-05,-0.025414637
2.33E-05,-0.02508025
2.34E-05,-0.025414637
2.34E-05,-0.024411477
2.34E-05,-0.024745864
2.34E-05,-0.023742704
2.34E-05,-0.023408317
2.35E-05,-0.022739544
2.35E-05,-0.022739544
2.35E-05,-0.02307393
2.35E-05,-0.022739544
2.35E-05,-0.022739544
2.36E-05,-0.020733224
2.36E-05,-0.021736384
2.36E-05,-0.020398837
2.36E-05,-0.019730064
2.36E-05,-0.019061291
2.37E-05,-0.018392517
2.37E-05,-0.018726904
2.37E-05,-0.018392517
2.37E-05,-0.017723744
2.37E-05,-0.017054971
2.38E-05,-0.016051811
2.38E-05,-0.016051811
2.38E-05,-0.016386197
2.38E-05,-0.015383038
2.38E-05,-0.014714264
2.39E-05,-0.014045491
2.39E-05,-0.013711104
2.39E-05,-0.013042331
2.39E-05,-0.012707944
2.39E-05,-0.011704784
2.40E-05,-0.011704784
2.40E-05,-0.011370398
2.40E-05,-0.010367238
2.40E-05,-0.010367238
2.40E-05,-0.009698465
2.41E-05,-0.008360918
2.41E-05,-0.009698465
2.41E-05,-0.008026531
2.41E-05,-0.008026531
2.41E-05,-0.007692145
2.42E-05,-0.007692145
2.42E-05,-0.006354598
2.42E-05,-0.008026531
2.42E-05,-0.006020212
2.42E-05,-0.005351438
2.43E-05,-0.004682665
2.43E-05,-0.003345118
2.43E-05,-0.003010732
2.43E-05,-0.003345118
2.43E-05,-0.003679505
2.44E-05,-0.002341958
2.44E-05,-0.002341958
2.44E-05,-0.002341958
2.44E-05,-0.001338799
2.44E-05,-1.25E-06
2.45E-05,-1.25E-06
2.45E-05,-1.25E-06
2.45E-05,0.001001908
2.45E-05,0.001001908
2.45E-05,0.002005068
2.46E-05,0.002339455
2.46E-05,0.002005068
2.46E-05,0.003008228
2.46E-05,0.003008228
2.46E-05,0.004011388
2.47E-05,0.004345774
2.47E-05,0.005014548
2.47E-05,0.006017708
2.47E-05,0.006352094
2.47E-05,0.008024028
2.48E-05,0.006686481
2.48E-05,0.007689641
2.48E-05,0.007355254
2.48E-05,0.007020868
2.48E-05,0.009361574
2.49E-05,0.009361574
2.49E-05,0.008358414
2.49E-05,0.009027187
2.49E-05,0.010699121
2.49E-05,0.010364734
2.50E-05,0.011033507
2.50E-05,0.012036667
2.50E-05,0.011702281
2.50E-05,0.010364734
2.50E-05,0.012036667
2.51E-05,0.013039827
2.51E-05,0.014377374
2.51E-05,0.013374214
2.51E-05,0.0137086
2.51E-05,0.014377374
2.52E-05,0.014042987
2.52E-05,0.014377374
2.52E-05,0.01471176
2.52E-05,0.016383694
2.52E-05,0.015046147
2.53E-05,0.016049307
2.53E-05,0.016049307
2.53E-05,0.017052467
2.53E-05,0.017386854
2.53E-05,0.01671808
2.54E-05,0.017386854
2.54E-05,0.01772124
2.54E-05,0.018390013
2.54E-05,0.019058787
2.54E-05,0.018055627
2.55E-05,0.019058787
2.55E-05,0.019058787
2.55E-05,0.018055627
2.55E-05,0.01972756
2.55E-05,0.021065107
2.56E-05,0.019058787
2.56E-05,0.021065107
2.56E-05,0.021065107
2.56E-05,0.021065107
2.56E-05,0.02173388
2.57E-05,0.02173388
2.57E-05,0.021399493
2.57E-05,0.02173388
2.57E-05,0.022068267
2.57E-05,0.022068267
2.58E-05,0.023071427
2.58E-05,0.021399493
2.58E-05,0.022068267
2.58E-05,0.02273704
2.58E-05,0.022402653
2.59E-05,0.0237402
2.59E-05,0.0237402
2.59E-05,0.02273704
2.59E-05,0.024408973
2.59E-05,0.023071427
2.60E-05,0.024408973
2.60E-05,0.02474336
2.60E-05,0.024074586
2.60E-05,0.024074586
2.60E-05,0.024074586
2.61E-05,0.025077746
2.61E-05,0.024408973
2.61E-05,0.025077746
2.61E-05,0.025077746
2.61E-05,0.025077746
2.62E-05,0.02474336
2.62E-05,0.02574652
2.62E-05,0.025077746
2.62E-05,0.02474336
2.62E-05,0.025412133
2.63E-05,0.025412133
2.63E-05,0.025412133
2.63E-05,0.02574652
2.63E-05,0.025077746
2.63E-05,0.0237402
2.64E-05,0.025077746
2.64E-05,0.025412133
2.64E-05,0.026415293
2.64E-05,0.02574652
2.64E-05,0.026080906
2.65E-05,0.025412133
2.65E-05,0.025412133
2.65E-05,0.02474336
2.65E-05,0.024408973
2.65E-05,0.024408973
2.66E-05,0.02474336
2.66E-05,0.025412133
2.66E-05,0.02674968
2.66E-05,0.025077746
2.66E-05,0.025412133
2.67E-05,0.02474336
2.67E-05,0.025077746
2.67E-05,0.024408973
2.67E-05,0.024408973
2.67E-05,0.025412133
2.68E-05,0.02474336
2.68E-05,0.024408973
2.68E-05,0.024408973
2.68E-05,0.024074586
2.68E-05,0.024408973
2.69E-05,0.024074586
2.69E-05,0.024074586
2.69E-05,0.023071427
2.69E-05,0.022402653
2.69E-05,0.02474336
2.70E-05,0.02273704
2.70E-05,0.023405813
2.70E-05,0.023405813
2.70E-05,0.023405813
2.70E-05,0.023071427
2.71E-05,0.023071427
2.71E-05,0.02173388
2.71E-05,0.023071427
2.71E-05,0.022402653
2.71E-05,0.02173388
2.72E-05,0.02173388
2.72E-05,0.021065107
2.72E-05,0.02073072
2.72E-05,0.022068267
2.72E-05,0.02173388
2.73E-05,0.021065107
2.73E-05,0.02073072
2.73E-05,0.02073072
2.73E-05,0.020396333
2.73E-05,0.020061947
2.74E-05,0.019393173
2.74E-05,0.020061947
2.74E-05,0.01972756
2.74E-05,0.01972756
2.74E-05,0.01972756
2.75E-05,0.019058787
2.75E-05,0.017386854
2.75E-05,0.01772124
2.75E-05,0.018390013
2.75E-05,0.0187244
2.76E-05,0.018055627
2.76E-05,0.018055627
2.76E-05,0.01772124
2.76E-05,0.017052467
2.76E-05,0.016383694
2.77E-05,0.01671808
2.77E-05,0.016049307
2.77E-05,0.016383694
2.77E-05,0.015380534
2.77E-05,0.015380534
2.78E-05,0.015046147
2.78E-05,0.015046147
2.78E-05,0.01471176
2.78E-05,0.014042987
2.78E-05,0.014377374
2.79E-05,0.012705441
2.79E-05,0.014042987
2.79E-05,0.012705441
2.79E-05,0.013039827
2.79E-05,0.012371054
2.80E-05,0.012036667
2.80E-05,0.011367894
2.80E-05,0.012036667
2.80E-05,0.011033507
2.80E-05,0.011702281
2.81E-05,0.011702281
2.81E-05,0.010364734
2.81E-05,0.010699121
2.81E-05,0.009695961
2.81E-05,0.008692801
2.82E-05,0.009361574
2.82E-05,0.009361574
2.82E-05,0.008692801
2.82E-05,0.008358414
2.82E-05,0.007689641
2.83E-05,0.008024028
2.83E-05,0.007689641
2.83E-05,0.007689641
2.83E-05,0.007020868
2.83E-05,0.007020868
2.84E-05,0.005014548
2.84E-05,0.006352094
2.84E-05,0.006017708
2.84E-05,0.005014548
2.84E-05,0.004345774
2.85E-05,0.005683321
2.85E-05,0.004011388
2.85E-05,0.004345774
2.85E-05,0.003677001
2.85E-05,0.003008228
2.86E-05,0.002339455
2.86E-05,0.002673841
2.86E-05,0.002005068
2.86E-05,0.002673841
2.86E-05,0.002339455
2.87E-05,0.003677001
2.87E-05,0.001670681
2.87E-05,0.001670681
2.87E-05,0.000333135
2.87E-05,0.000333135
2.88E-05,0.002005068
2.88E-05,-0.000670025
2.88E-05,-0.000335639
2.88E-05,-1.25E-06
2.88E-05,-0.000670025
2.89E-05,-0.000670025
2.89E-05,-0.001004412
2.89E-05,-0.000670025
2.89E-05,-0.002007572
2.89E-05,-0.002007572
2.90E-05,-0.002676345
2.90E-05,-0.002341958
2.90E-05,-0.003345118
2.90E-05,-0.003345118
2.90E-05,-0.003010732
2.91E-05,-0.003679505
2.91E-05,-0.003010732
2.91E-05,-0.003010732
2.91E-05,-0.003679505
2.91E-05,-0.004348278
2.92E-05,-0.004013892
2.92E-05,-0.005017052
2.92E-05,-0.005351438
2.92E-05,-0.004682665
2.92E-05,-0.005017052
2.93E-05,-0.006020212
2.93E-05,-0.005351438
2.93E-05,-0.006020212
2.93E-05,-0.006688985
2.93E-05,-0.006020212
2.94E-05,-0.006354598
2.94E-05,-0.007357758
2.94E-05,-0.008026531
2.94E-05,-0.008695305
2.94E-05,-0.007023371
2.95E-05,-0.008695305
2.95E-05,-0.008360918
2.95E-05,-0.007023371
2.95E-05,-0.007357758
2.95E-05,-0.006688985
2.96E-05,-0.008026531
2.96E-05,-0.008360918
2.96E-05,-0.008026531
2.96E-05,-0.008026531
2.96E-05,-0.008026531
2.97E-05,-0.008026531
2.97E-05,-0.009029691
2.97E-05,-0.009029691
2.97E-05,-0.007692145
2.97E-05,-0.009698465
2.98E-05,-0.009698465
2.98E-05,-0.010032851
2.98E-05,-0.009364078
2.98E-05,-0.010032851
2.98E-05,-0.010032851
2.99E-05,-0.011036011
2.99E-05,-0.010032851
2.99E-05,-0.010367238
2.99E-05,-0.010032851
2.99E-05,-0.011036011
3.00E-05,-0.010032851
3.00E-05,-0.010701625
3.00E-05,-0.011036011
3.00E-05,-0.010701625
3.00E-05,-0.011036011
3.01E-05,-0.011370398
3.01E-05,-0.011036011
3.01E-05,-0.012039171
3.01E-05,-0.010367238
3.01E-05,-0.011704784
3.02E-05,-0.011370398
3.02E-05,-0.010701625
3.02E-05,-0.012039171
3.02E-05,-0.009698465
3.02E-05,-0.011704784
3.03E-05,-0.011704784
3.03E-05,-0.010701625
3.03E-05,-0.011036011
3.03E-05,-0.012707944
3.03E-05,-0.010701625
3.04E-05,-0.011370398
3.04E-05,-0.011704784
3.04E-05,-0.011370398
3.04E-05,-0.011370398
3.04E-05,-0.011036011
3.05E-05,-0.013042331
3.05E-05,-0.012039171
3.05E-05,-0.013042331
3.05E-05,-0.012373558
3.05E-05,-0.012039171
3.06E-05,-0.012373558
3.06E-05,-0.013042331
3.06E-05,-0.012373558
3.06E-05,-0.012039171
3.06E-05,-0.011370398
3.07E-05,-0.012707944
3.07E-05,-0.011370398
3.07E-05,-0.011370398
3.07E-05,-0.012373558
3.07E-05,-0.012039171
3.08E-05,-0.013376718
3.08E-05,-0.012373558
3.08E-05,-0.013042331
3.08E-05,-0.010701625
3.08E-05,-0.012039171
3.09E-05,-0.012039171
3.09E-05,-0.012039171
3.09E-05,-0.011370398
3.09E-05,-0.011370398
3.09E-05,-0.010367238
3.10E-05,-0.011036011
3.10E-05,-0.013042331
3.10E-05,-0.010701625
3.10E-05,-0.010701625
3.10E-05,-0.013042331
3.11E-05,-0.011704784
3.11E-05,-0.011036011
3.11E-05,-0.010032851
3.11E-05,-0.010701625
3.11E-05,-0.011036011
3.12E-05,-0.010032851
3.12E-05,-0.011036011
3.12E-05,-0.010701625
3.12E-05,-0.010367238
3.12E-05,-0.010367238
3.13E-05,-0.010367238
3.13E-05,-0.010701625
3.13E-05,-0.009698465
3.13E-05,-0.009364078
3.13E-05,-0.008695305
3.14E-05,-0.009698465
3.14E-05,-0.009364078
3.14E-05,-0.009029691
3.14E-05,-0.008360918
3.14E-05,-0.009029691
3.15E-05,-0.007692145
3.15E-05,-0.009364078
3.15E-05,-0.008026531
3.15E-05,-0.007692145
3.15E-05,-0.008026531
3.16E-05,-0.007692145
3.16E-05,-0.008695305
3.16E-05,-0.008026531
3.16E-05,-0.007692145
3.16E-05,-0.007692145
3.17E-05,-0.007357758
3.17E-05,-0.006354598
3.17E-05,-0.007357758
3.17E-05,-0.006688985
3.17E-05,-0.006354598
3.18E-05,-0.006354598
3.18E-05,-0.006020212
3.18E-05,-0.006020212
3.18E-05,-0.006020212
3.18E-05,-0.006020212
3.19E-05,-0.006354598
3.19E-05,-0.006354598
3.19E-05,-0.005351438
3.19E-05,-0.006020212
3.19E-05,-0.004013892
3.20E-05,-0.004682665
3.20E-05,-0.004682665
3.20E-05,-0.004682665
3.20E-05,-0.004348278
3.20E-05,-0.003679505
3.21E-05,-0.004348278
3.21E-05,-0.002676345
3.21E-05,-0.005017052
3.21E-05,-0.003679505
3.21E-05,-0.004013892
3.22E-05,-0.004013892
3.22E-05,-0.003679505
3.22E-05,-0.003010732
3.22E-05,-0.003010732
3.22E-05,-0.002676345
3.23E-05,-0.001673185
3.23E-05,-0.002341958
3.23E-05,-0.002341958
3.23E-05,-0.003010732
3.23E-05,-0.001338799
3.24E-05,-0.002341958
3.24E-05,-0.000670025
3.24E-05,-0.000670025
3.24E-05,-1.25E-06
3.24E-05,-1.25E-06
3.25E-05,0.001001908
3.25E-05,-0.000335639
3.25E-05,-0.000670025
3.25E-05,-1.25E-06
3.25E-05,-0.001338799
3.26E-05,0.000333135
3.26E-05,0.000667521
3.26E-05,0.000667521
3.26E-05,0.001001908
3.26E-05,0.000667521
3.27E-05,0.002005068
3.27E-05,0.001336295
3.27E-05,0.002005068
3.27E-05,0.002339455
3.27E-05,0.002339455
3.28E-05,0.001670681
3.28E-05,0.003008228
3.28E-05,0.001670681
3.28E-05,0.001670681
3.28E-05,0.003677001
3.29E-05,0.003008228
3.29E-05,0.002005068
3.29E-05,0.004345774
3.29E-05,0.004011388
3.29E-05,0.004345774
3.30E-05,0.004011388
3.30E-05,0.005014548
3.30E-05,0.005014548
3.30E-05,0.004011388
3.30E-05,0.004011388
3.31E-05,0.004680161
3.31E-05,0.004345774
3.31E-05,0.006017708
3.31E-05,0.004680161
3.31E-05,0.005014548
3.32E-05,0.005014548
3.32E-05,0.005683321
3.32E-05,0.004345774
3.32E-05,0.006352094
3.32E-05,0.006352094
3.33E-05,0.006352094
3.33E-05,0.007020868
3.33E-05,0.006017708
3.33E-05,0.007355254
3.33E-05,0.006352094
3.34E-05,0.007355254
3.34E-05,0.006017708
3.34E-05,0.006686481
3.34E-05,0.006686481
3.34E-05,0.006352094
3.35E-05,0.008024028
3.35E-05,0.008024028
3.35E-05,0.007020868
3.35E-05,0.008024028
3.35E-05,0.007020868
3.36E-05,0.008358414
3.36E-05,0.006686481
3.36E-05,0.007689641
3.36E-05,0.008692801
3.36E-05,0.008024028
3.37E-05,0.009361574
3.37E-05,0.008024028
3.37E-05,0.008024028
3.37E-05,0.008692801
3.37E-05,0.009027187
3.38E-05,0.009027187
3.38E-05,0.009361574
3.38E-05,0.008024028
3.38E-05,0.009027187
3.38E-05,0.008024028
3.39E-05,0.009027187
3.39E-05,0.008692801
3.39E-05,0.009027187
3.39E-05,0.009027187
3.39E-05,0.009361574
3.40E-05,0.009695961
3.40E-05,0.009027187
3.40E-05,0.009361574
3.40E-05,0.009361574
3.40E-05,0.009695961
3.41E-05,0.009361574
3.41E-05,0.009695961
3.41E-05,0.009361574
3.41E-05,0.010699121
3.41E-05,0.011367894
3.42E-05,0.010030347
3.42E-05,0.010364734
3.42E-05,0.009695961
3.42E-05,0.010030347
3.42E-05,0.009695961
3.43E-05,0.010030347
3.43E-05,0.010699121
3.43E-05,0.010699121
3.43E-05,0.010699121
3.43E-05,0.010030347
3.44E-05,0.009027187
3.44E-05,0.011033507
3.44E-05,0.009695961
3.44E-05,0.010699121
3.44E-05,0.010699121
3.45E-05,0.011033507
3.45E-05,0.010030347
3.45E-05,0.010364734
3.45E-05,0.009027187
3.45E-05,0.010364734
3.46E-05,0.010030347
3.46E-05,0.009695961
3.46E-05,0.011702281
3.46E-05,0.010364734
3.46E-05,0.010364734
3.47E-05,0.010030347
3.47E-05,0.012036667
3.47E-05,0.011702281
3.47E-05,0.011033507
3.47E-05,0.010699121
3.48E-05,0.013374214
3.48E-05,0.010030347
3.48E-05,0.007020868
3.48E-05,0.012705441
3.48E-05,0.010699121
3.49E-05,0.009695961
3.49E-05,0.011367894
3.49E-05,0.010030347
3.49E-05,0.011033507
3.49E-05,0.011367894
3.50E-05,0.010364734
3.50E-05,0.010364734
3.50E-05,0.010030347
3.50E-05,0.010030347
3.50E-05,0.010364734
3.51E-05,0.010030347
3.51E-05,0.010699121
3.51E-05,0.010030347
3.51E-05,0.009027187
3.51E-05,0.010364734
3.52E-05,0.009361574
3.52E-05,0.010030347
3.52E-05,0.009361574
3.52E-05,0.011033507
3.52E-05,0.009361574
3.53E-05,0.009361574
3.53E-05,0.009361574
3.53E-05,0.009027187
3.53E-05,0.010364734
3.53E-05,0.010030347
3.54E-05,0.008692801
3.54E-05,0.009361574
3.54E-05,0.008358414
3.54E-05,0.008358414
3.54E-05,0.009027187
3.55E-05,0.009361574
3.55E-05,0.009361574
3.55E-05,0.009695961
3.55E-05,0.008024028
3.55E-05,0.008024028
3.56E-05,0.009027187
3.56E-05,0.009361574
3.56E-05,0.008024028
3.56E-05,0.009027187
3.56E-05,0.007689641
3.57E-05,0.008692801
3.57E-05,0.007689641
3.57E-05,0.008024028
3.57E-05,0.008024028
3.57E-05,0.008358414
3.58E-05,0.009027187
3.58E-05,0.008692801
3.58E-05,0.008692801
3.58E-05,0.008358414
3.58E-05,0.007689641
3.59E-05,0.007355254
3.59E-05,0.007355254
3.59E-05,0.008358414
3.59E-05,0.008024028
3.59E-05,0.007020868
3.60E-05,0.006686481
3.60E-05,0.007020868
3.60E-05,0.007355254
3.60E-05,0.007020868
3.60E-05,0.007689641
3.61E-05,0.007020868
3.61E-05,0.006686481
3.61E-05,0.007020868
3.61E-05,0.006686481
3.61E-05,0.007020868
3.62E-05,0.006686481
3.62E-05,0.006352094
3.62E-05,0.005683321
3.62E-05,0.005348934
3.62E-05,0.005683321
3.63E-05,0.006017708
3.63E-05,0.006352094
3.63E-05,0.004680161
3.63E-05,0.005348934
3.63E-05,0.005683321
3.64E-05,0.005348934
3.64E-05,0.004680161
3.64E-05,0.004680161
3.64E-05,0.004680161
3.64E-05,0.004011388
3.65E-05,0.004345774
3.65E-05,0.004680161
3.65E-05,0.004345774
3.65E-05,0.004011388
3.65E-05,0.004345774
3.66E-05,0.003342615
3.66E-05,0.004011388
3.66E-05,0.003677001
3.66E-05,0.003677001
3.66E-05,0.003342615
3.67E-05,0.003677001
3.67E-05,0.003008228
3.67E-05,0.003008228
3.67E-05,0.003008228
3.67E-05,0.003008228
3.68E-05,0.002339455
3.68E-05,0.002673841
3.68E-05,0.002339455
3.68E-05,0.002339455
3.68E-05,0.002339455
3.69E-05,0.001670681
3.69E-05,0.002005068
3.69E-05,0.001670681
3.69E-05,0.001670681
3.69E-05,0.002005068
3.70E-05,0.001001908
3.70E-05,0.001001908
3.70E-05,0.001336295
3.70E-05,0.001001908
3.70E-05,0.000333135
3.71E-05,0.001670681
3.71E-05,0.001001908
3.71E-05,0.002339455
3.71E-05,0.001001908
3.71E-05,-1.25E-06
3.72E-05,0.000667521
3.72E-05,0.001336295
3.72E-05,-1.25E-06
3.72E-05,-1.25E-06
3.72E-05,-0.000670025
3.73E-05,0.001670681
3.73E-05,-1.25E-06
3.73E-05,-0.000335639
3.73E-05,-0.000670025
3.73E-05,-0.001004412
3.74E-05,0.001001908
3.74E-05,-1.25E-06
3.74E-05,-0.000670025
3.74E-05,-0.001004412
3.74E-05,-0.001004412
3.75E-05,-0.000335639
3.75E-05,-0.001004412
3.75E-05,-0.001004412
3.75E-05,-1.25E-06
3.75E-05,-0.002007572
3.76E-05,-0.000670025
3.76E-05,-0.001004412
3.76E-05,-0.001338799
3.76E-05,-0.001004412
3.76E-05,-0.001673185
3.77E-05,-1.25E-06
3.77E-05,-0.001673185
3.77E-05,-0.002341958
3.77E-05,-0.000670025
3.77E-05,-0.001004412
3.78E-05,-0.001004412
3.78E-05,-0.001338799
3.78E-05,-0.002676345
3.78E-05,-0.001004412
3.78E-05,-0.003010732
3.79E-05,-0.001673185
3.79E-05,-0.002341958
3.79E-05,-0.001338799
3.79E-05,-0.002676345
3.79E-05,-0.002341958
3.80E-05,-0.003010732
3.80E-05,-0.003010732
3.80E-05,-0.003679505
3.80E-05,-0.001338799
3.80E-05,-0.003345118
3.81E-05,-0.002676345
3.81E-05,-0.002676345
3.81E-05,-0.002676345
3.81E-05,-0.001673185
3.81E-05,-0.002676345
3.82E-05,-0.001673185
3.82E-05,-0.002341958
3.82E-05,-0.002341958
3.82E-05,-0.003010732
3.82E-05,-0.003345118
3.83E-05,-0.003345118
3.83E-05,-0.001338799
3.83E-05,-0.003679505
3.83E-05,-0.002676345
3.83E-05,-0.002341958
3.84E-05,-0.003010732
3.84E-05,-0.003010732
3.84E-05,-0.003345118
3.84E-05,-0.003679505
3.84E-05,-0.003345118
3.85E-05,-0.002007572
3.85E-05,-0.003010732
3.85E-05,-0.003345118
3.85E-05,-0.003345118
3.85E-05,-0.003345118
3.86E-05,-0.003679505
3.86E-05,-0.002007572
3.86E-05,-0.003679505
3.86E-05,-0.002007572
3.86E-05,-0.003345118
3.87E-05,-0.003345118
3.87E-05,-0.004013892
3.87E-05,-0.003345118
3.87E-05,-0.003345118
3.87E-05,-0.003345118
3.88E-05,-0.002676345
3.88E-05,-0.003010732
3.88E-05,-0.002676345
3.88E-05,-0.003345118
3.88E-05,-0.004013892
3.89E-05,-0.002676345
3.89E-05,-0.003679505
3.89E-05,-0.003010732
3.89E-05,-0.003345118
3.89E-05,-0.003345118
3.90E-05,-0.002676345
3.90E-05,-0.002341958
3.90E-05,-0.003679505
3.90E-05,-0.002676345
3.90E-05,-0.003010732
3.91E-05,-0.003679505
3.91E-05,-0.002007572
3.91E-05,-0.002341958
3.91E-05,-0.003345118
3.91E-05,-0.001338799
3.92E-05,-0.003679505
3.92E-05,-0.003679505
3.92E-05,-0.003010732
3.92E-05,-0.002007572
3.92E-05,-0.002007572
3.93E-05,-0.002676345
3.93E-05,-0.002341958
3.93E-05,-0.001673185
3.93E-05,-0.003679505
3.93E-05,-0.001338799
3.94E-05,-0.001673185
3.94E-05,-0.001673185
3.94E-05,-0.001673185
3.94E-05,-0.001338799
3.94E-05,-0.001338799
3.95E-05,-0.001673185
3.95E-05,-0.001004412
3.95E-05,-0.002676345
3.95E-05,-0.001673185
3.95E-05,-0.001673185
3.96E-05,-0.001673185
3.96E-05,-0.001673185
3.96E-05,-0.003010732
3.96E-05,-0.001338799
3.96E-05,-0.001673185
3.97E-05,-0.002007572
3.97E-05,-0.001338799
3.97E-05,-0.002007572
3.97E-05,-0.001338799
3.97E-05,-0.002007572
3.98E-05,-0.001338799
3.98E-05,-0.001673185
3.98E-05,-0.001338799
3.98E-05,-0.001004412
3.98E-05,-0.001338799
3.99E-05,-0.001338799
3.99E-05,-0.000670025
3.99E-05,-0.002676345
3.99E-05,-0.001338799
3.99E-05,-0.002007572
4.00E-05,-0.001338799
4.00E-05,-0.001338799
4.00E-05,-0.001673185
4.00E-05,-0.001004412
4.00E-05,0.000333135
4.01E-05,0.000333135
4.01E-05,0.000333135
4.01E-05,-0.001004412
4.01E-05,0.000333135
4.01E-05,-0.000670025
4.02E-05,-1.25E-06
4.02E-05,-0.001673185
4.02E-05,-1.25E-06
4.02E-05,-1.25E-06
4.02E-05,-0.000670025
4.03E-05,-0.000670025
4.03E-05,0.000333135
4.03E-05,-1.25E-06
4.03E-05,0.001001908
4.03E-05,-1.25E-06
4.04E-05,0.000333135
4.04E-05,-0.001004412
4.04E-05,0.000667521
4.04E-05,-1.25E-06
4.04E-05,-1.25E-06
4.05E-05,0.002005068
4.05E-05,0.000667521
4.05E-05,0.000333135
4.05E-05,-1.25E-06
4.05E-05,-1.25E-06
4.06E-05,0.001670681
4.06E-05,0.000333135
4.06E-05,0.002005068
4.06E-05,0.000667521
4.06E-05,0.000333135
4.07E-05,0.001001908
4.07E-05,0.000667521
4.07E-05,0.001336295
4.07E-05,0.001670681
4.07E-05,0.001336295
4.08E-05,0.001670681
4.08E-05,0.001670681
4.08E-05,0.001670681
4.08E-05,0.002339455
4.08E-05,0.003342615
4.09E-05,0.002339455
4.09E-05,0.002005068
4.09E-05,0.002339455
4.09E-05,0.002673841
4.09E-05,0.002005068
4.10E-05,0.002673841
4.10E-05,0.002673841
4.10E-05,0.003342615
4.10E-05,0.003008228
4.10E-05,0.003008228
4.11E-05,0.003342615
4.11E-05,0.004011388
4.11E-05,0.003342615
4.11E-05,0.002673841
4.11E-05,0.003342615
4.12E-05,0.002339455
4.12E-05,0.003008228
4.12E-05,0.003342615
4.12E-05,0.004345774
4.12E-05,0.003677001
4.13E-05,0.003342615
4.13E-05,0.003677001
4.13E-05,0.003008228
4.13E-05,0.003342615
4.13E-05,0.003008228
4.14E-05,0.003677001
4.14E-05,0.004680161
4.14E-05,0.004680161
4.14E-05,0.003342615
4.14E-05,0.004345774
4.15E-05,0.003677001
4.15E-05,0.003342615
4.15E-05,0.003677001
4.15E-05,0.003677001
4.15E-05,0.004345774
4.16E-05,0.004680161
4.16E-05,0.003677001
4.16E-05,0.004680161
4.16E-05,0.005683321
4.16E-05,0.005348934
4.17E-05,0.004011388
4.17E-05,0.004680161
4.17E-05,0.005014548
4.17E-05,0.005014548
4.17E-05,0.004680161
4.18E-05,0.004680161
4.18E-05,0.005014548
4.18E-05,0.005348934
4.18E-05,0.004345774
4.18E-05,0.004345774
4.19E-05,0.005683321
4.19E-05,0.005348934
4.19E-05,0.005014548
4.19E-05,0.005014548
4.19E-05,0.005348934
4.20E-05,0.005348934
4.20E-05,0.004680161
4.20E-05,0.004345774
4.20E-05,0.003677001
4.20E-05,0.005014548
4.21E-05,0.005014548
4.21E-05,0.005683321
4.21E-05,0.005348934
4.21E-05,0.005014548
4.21E-05,0.005014548
4.22E-05,0.005348934
4.22E-05,0.005348934
4.22E-05,0.006017708
4.22E-05,0.005014548
4.22E-05,0.005348934
4.23E-05,0.004680161
4.23E-05,0.004680161
4.23E-05,0.004011388
4.23E-05,0.004011388
4.23E-05,0.008358414
4.24E-05,0.005683321
4.24E-05,0.004680161
4.24E-05,0.004680161
4.24E-05,0.006017708
4.24E-05,0.004680161
4.25E-05,0.005348934
4.25E-05,0.004680161
4.25E-05,0.005014548
4.25E-05,0.006352094
4.25E-05,0.005683321
4.26E-05,0.005348934
4.26E-05,0.005683321
4.26E-05,0.006352094
4.26E-05,0.006017708
4.26E-05,0.005683321
4.27E-05,0.006352094
4.27E-05,0.004680161
4.27E-05,0.006017708
4.27E-05,0.006352094
4.27E-05,0.005014548
4.28E-05,0.005683321
4.28E-05,0.005683321
4.28E-05,0.006017708
4.28E-05,0.005014548
4.28E-05,0.006017708
4.29E-05,0.005683321
4.29E-05,0.006017708
4.29E-05,0.006017708
4.29E-05,0.005014548
4.29E-05,0.005683321
4.30E-05,0.005683321
4.30E-05,0.005348934
4.30E-05,0.006352094
4.30E-05,0.005683321
4.30E-05,0.005683321
4.31E-05,0.004345774
4.31E-05,0.005348934
4.31E-05,0.006686481
4.31E-05,0.005348934
4.31E-05,0.005683321
4.32E-05,0.006017708
4.32E-05,0.005014548
4.32E-05,0.005348934
4.32E-05,0.004680161
4.32E-05,0.005014548
4.33E-05,0.005683321
4.33E-05,0.005683321
4.33E-05,0.005014548
4.33E-05,0.005014548
4.33E-05,0.005014548
4.34E-05,0.005348934
4.34E-05,0.004345774
4.34E-05,0.005348934
4.34E-05,0.005348934
4.34E-05,0.006017708
4.35E-05,0.007689641
4.35E-05,0.006352094
4.35E-05,0.006017708
4.35E-05,0.006017708
4.35E-05,0.005683321
4.36E-05,0.005348934
4.36E-05,0.005348934
4.36E-05,0.005014548
4.36E-05,0.006017708
4.36E-05,0.005683321
4.37E-05,0.006686481
4.37E-05,0.005683321
4.37E-05,0.005683321
4.37E-05,0.005683321
4.37E-05,0.004345774
4.38E-05,0.004680161
4.38E-05,0.004011388
4.38E-05,0.004680161
4.38E-05,0.004680161
4.38E-05,0.005014548
4.39E-05,0.005683321
4.39E-05,0.005014548
4.39E-05,0.005014548
4.39E-05,0.005014548
4.39E-05,0.005348934
4.40E-05,0.005014548
4.40E-05,0.004011388
4.40E-05,0.004011388
4.40E-05,0.005014548
4.40E-05,0.004011388
4.41E-05,0.005014548
4.41E-05,0.005014548
4.41E-05,0.005014548
4.41E-05,0.004345774
4.41E-05,0.004011388
4.42E-05,0.004345774
4.42E-05,0.004345774
4.42E-05,0.004345774
4.42E-05,0.003008228
4.42E-05,0.004011388
4.43E-05,0.004345774
4.43E-05,0.004345774
4.43E-05,0.004011388
4.43E-05,0.004345774
4.43E-05,0.003677001
4.44E-05,0.003008228
4.44E-05,0.003677001
4.44E-05,0.004011388
4.44E-05,0.003677001
4.44E-05,0.003342615
4.45E-05,0.003677001
4.45E-05,0.004345774
4.45E-05,0.003342615
4.45E-05,0.004011388
4.45E-05,0.003677001
4.46E-05,0.003677001
4.46E-05,0.003008228
4.46E-05,0.003677001
4.46E-05,0.003342615
4.46E-05,0.002339455
4.47E-05,0.003008228
4.47E-05,0.003342615
4.47E-05,0.003008228
4.47E-05,0.004011388
4.47E-05,0.002673841
4.48E-05,0.004345774
4.48E-05,0.004680161
4.48E-05,0.004011388
4.48E-05,0.002673841
4.48E-05,0.002005068
4.49E-05,0.002673841
4.49E-05,0.002005068
4.49E-05,0.003342615
4.49E-05,0.003008228
4.49E-05,0.001336295
4.50E-05,0.002339455
4.50E-05,0.002339455
4.50E-05,0.001336295
4.50E-05,0.002339455
4.50E-05,0.001336295
4.51E-05,0.002673841
4.51E-05,0.001670681
4.51E-05,0.002005068
4.51E-05,0.002005068
4.51E-05,0.002005068
4.52E-05,0.003008228
4.52E-05,0.002339455
4.52E-05,0.001670681
4.52E-05,0.003342615
4.52E-05,0.002339455
4.53E-05,0.002673841
4.53E-05,0.001336295
4.53E-05,0.002673841
4.53E-05,0.001670681
4.53E-05,0.001001908
4.54E-05,0.001001908
4.54E-05,0.001670681
4.54E-05,0.001001908
4.54E-05,0.001670681
4.54E-05,0.001670681
4.55E-05,0.001001908
4.55E-05,0.001670681
4.55E-05,0.002005068
4.55E-05,0.001336295
4.55E-05,0.001336295
4.56E-05,0.001336295
4.56E-05,0.001670681
4.56E-05,0.001001908
4.56E-05,-0.000335639
4.56E-05,0.001670681
4.57E-05,0.001670681
4.57E-05,0.001001908
4.57E-05,0.001336295
4.57E-05,0.002005068
4.57E-05,0.000667521
4.58E-05,0.000333135
4.58E-05,0.001336295
4.58E-05,0.000667521
4.58E-05,-0.001004412
4.58E-05,0.002005068
4.59E-05,-1.25E-06
4.59E-05,0.000333135
4.59E-05,0.001670681
4.59E-05,0.000333135
4.59E-05,0.001336295
4.60E-05,-1.25E-06
4.60E-05,-0.001004412
4.60E-05,0.000333135
4.60E-05,0.000333135
4.60E-05,0.000667521
4.61E-05,0.000333135
4.61E-05,0.000667521
4.61E-05,0.000667521
4.61E-05,0.000333135
4.61E-05,0.001001908
4.62E-05,0.001001908
4.62E-05,-1.25E-06
4.62E-05,-1.25E-06
4.62E-05,-0.000670025
4.62E-05,-0.000335639
4.63E-05,-1.25E-06
4.63E-05,0.000667521
4.63E-05,-1.25E-06
4.63E-05,-0.000670025
4.63E-05,-1.25E-06
4.64E-05,-0.000335639
4.64E-05,-0.000335639
4.64E-05,-0.000335639
4.64E-05,-1.25E-06
4.64E-05,-0.001004412
4.65E-05,0.000333135
4.65E-05,-1.25E-06
4.65E-05,-0.000670025
4.65E-05,-0.000670025
4.65E-05,-0.001004412
4.66E-05,-0.001004412
4.66E-05,0.000667521
4.66E-05,-0.001338799
4.66E-05,-0.000335639
4.66E-05,-0.001004412
4.67E-05,-0.000670025
4.67E-05,-0.000670025
4.67E-05,-0.000335639
4.67E-05,0.000333135
4.67E-05,-0.000335639
4.68E-05,-0.000335639
4.68E-05,-0.000335639
4.68E-05,-0.000670025
4.68E-05,-0.001338799
4.68E-05,-0.000670025
4.69E-05,0.001336295
4.69E-05,-0.001338799
4.69E-05,-0.001338799
4.69E-05,-1.25E-06
4.69E-05,-1.25E-06
4.70E-05,-0.000335639
4.70E-05,-1.25E-06
4.70E-05,-1.25E-06
4.70E-05,-0.000335639
4.70E-05,0.000333135
4.71E-05,0.000333135
4.71E-05,0.000667521
4.71E-05,0.000333135
4.71E-05,0.000333135
4.71E-05,0.000667521
4.72E-05,0.000333135
4.72E-05,0.000667521
4.72E-05,-1.25E-06
4.72E-05,-0.000670025
4.72E-05,0.000333135
4.73E-05,-1.25E-06
4.73E-05,-0.000670025
4.73E-05,-1.25E-06
4.73E-05,-1.25E-06
4.73E-05,-1.25E-06
4.74E-05,-1.25E-06
4.74E-05,0.000333135
4.74E-05,0.001001908
4.74E-05,0.001001908
4.74E-05,0.001336295
4.75E-05,-0.001004412
4.75E-05,0.001001908
4.75E-05,0.000333135
4.75E-05,0.000667521
4.75E-05,0.001001908
4.76E-05,0.000333135
4.76E-05,0.000333135
4.76E-05,-0.000335639
4.76E-05,0.000333135
4.76E-05,0.000667521
4.77E-05,0.000667521
4.77E-05,-1.25E-06
4.77E-05,-0.000335639
4.77E-05,0.000333135
4.77E-05,0.000667521
4.78E-05,0.001670681
4.78E-05,0.000667521
4.78E-05,0.001001908
4.78E-05,-1.25E-06
4.78E-05,0.001001908
4.79E-05,0.000667521
4.79E-05,0.000667521
4.79E-05,-0.000335639
4.79E-05,-1.25E-06
4.79E-05,0.000333135
4.80E-05,0.001670681
4.80E-05,0.000333135
4.80E-05,0.000333135
4.80E-05,0.000333135
4.80E-05,0.000667521
4.81E-05,0.000667521
4.81E-05,0.001001908
4.81E-05,0.001670681
4.81E-05,0.000667521
4.81E-05,0.001001908
4.82E-05,0.001001908
4.82E-05,0.001336295
4.82E-05,0.001670681
4.82E-05,0.001001908
4.82E-05,0.000667521
4.83E-05,0.001670681
4.83E-05,0.002005068
4.83E-05,0.001670681
4.83E-05,0.002673841
4.83E-05,0.001670681
4.84E-05,0.001336295
4.84E-05,0.002005068
4.84E-05,0.002005068
4.84E-05,-1.25E-06
4.84E-05,0.001001908
4.85E-05,0.002339455
4.85E-05,0.002339455
4.85E-05,0.001336295
4.85E-05,0.001001908
4.85E-05,0.002005068
4.86E-05,0.001336295
4.86E-05,0.002005068
4.86E-05,0.002339455
4.86E-05,0.002005068
4.86E-05,0.002673841
4.87E-05,0.002005068
4.87E-05,0.003342615
4.87E-05,0.001670681
4.87E-05,0.002005068
4.87E-05,0.002339455
4.88E-05,0.002339455
4.88E-05,0.001670681
4.88E-05,0.002005068
4.88E-05,0.002673841
4.88E-05,0.003342615
4.89E-05,0.002673841
4.89E-05,0.002673841
4.89E-05,0.002005068
4.89E-05,0.000333135
4.89E-05,0.001001908
4.90E-05,0.002339455
4.90E-05,0.001336295
4.90E-05,0.002339455
4.90E-05,0.002673841
4.90E-05,0.002005068
4.91E-05,0.001670681
4.91E-05,0.002005068
4.91E-05,0.002005068
4.91E-05,0.002339455
4.91E-05,0.003008228
4.92E-05,0.002005068
4.92E-05,0.002339455
4.92E-05,0.002339455
4.92E-05,0.003008228
4.92E-05,0.003677001
4.93E-05,0.002005068
4.93E-05,0.002339455
4.93E-05,0.002673841
4.93E-05,0.002673841
4.93E-05,0.002673841
4.94E-05,0.003342615
4.94E-05,0.002673841
4.94E-05,0.002673841
4.94E-05,0.003008228
4.94E-05,0.002673841
4.95E-05,0.002673841
4.95E-05,0.002673841
4.95E-05,0.003677001
4.95E-05,0.004011388
4.95E-05,0.002339455
4.96E-05,0.003342615
4.96E-05,0.002339455
4.96E-05,0.002673841
4.96E-05,0.002673841
4.96E-05,0.003008228
4.97E-05,0.002673841
4.97E-05,0.003008228
4.97E-05,0.003008228
4.97E-05,0.003008228
4.97E-05,0.002005068
4.98E-05,0.003008228
4.98E-05,0.003342615
4.98E-05,0.002673841
4.98E-05,0.002673841
4.98E-05,0.002339455
4.99E-05,0.002673841
4.99E-05,0.002339455
4.99E-05,0.003342615
4.99E-05,0.003008228
4.99E-05,0.002673841
5.00E-05,0.003342615
5.00E-05,0.003677001
5.00E-05,0.002339455
5.00E-05,0.003342615
5.00E-05,0.004011388
5.01E-05,0.003342615
5.01E-05,0.002673841
5.01E-05,0.003342615
5.01E-05,0.003342615
5.01E-05,0.004011388
5.02E-05,0.002673841
5.02E-05,0.002339455
5.02E-05,0.002673841
5.02E-05,0.002673841
5.02E-05,0.003342615
5.03E-05,0.003008228
5.03E-05,0.003008228
5.03E-05,0.003008228
5.03E-05,0.003342615
5.03E-05,0.003008228
5.04E-05,0.002339455
5.04E-05,0.003342615
5.04E-05,0.004345774
5.04E-05,0.003677001
5.04E-05,0.003008228
5.05E-05,0.003008228
5.05E-05,0.003008228
5.05E-05,0.002339455
5.05E-05,0.003677001
5.05E-05,0.003008228
5.06E-05,0.004011388
5.06E-05,0.002673841
5.06E-05,0.003342615
5.06E-05,0.003342615
5.06E-05,0.004345774
5.07E-05,0.004011388
5.07E-05,0.004011388
5.07E-05,0.003008228
5.07E-05,0.004011388
5.07E-05,0.004011388
5.08E-05,0.003008228
5.08E-05,0.003677001
5.08E-05,0.003677001
5.08E-05,0.003008228
5.08E-05,0.003677001
5.09E-05,0.003342615
5.09E-05,0.003342615
5.09E-05,0.003342615
5.09E-05,0.003342615
5.09E-05,0.004680161
5.10E-05,0.003008228
5.10E-05,0.005014548
5.10E-05,0.004345774
5.10E-05,0.004011388
5.10E-05,0.003342615
5.11E-05,0.003342615
5.11E-05,0.004011388
5.11E-05,0.004345774
5.11E-05,0.003677001
5.11E-05,0.003342615
5.12E-05,0.003008228
5.12E-05,0.004345774
5.12E-05,0.003677001
5.12E-05,0.004345774
5.12E-05,0.003342615
5.13E-05,0.004011388
5.13E-05,0.003342615
5.13E-05,0.003342615
5.13E-05,0.003008228
5.13E-05,0.003677001
5.14E-05,0.003677001
5.14E-05,0.004011388
5.14E-05,0.004011388
5.14E-05,0.004345774
5.14E-05,0.004345774
5.15E-05,0.003677001
5.15E-05,0.003677001
5.15E-05,0.002673841
5.15E-05,0.004011388
5.15E-05,0.004345774
5.16E-05,0.003342615
5.16E-05,0.003677001
5.16E-05,0.003677001
5.16E-05,0.004011388
5.16E-05,0.003342615
5.17E-05,0.002673841
5.17E-05,0.003008228
5.17E-05,0.003008228
5.17E-05,0.003677001
5.17E-05,0.003677001
5.18E-05,0.003008228
5.18E-05,0.004680161
5.18E-05,0.003677001
5.18E-05,0.003008228
5.18E-05,0.002673841
5.19E-05,0.004345774
5.19E-05,0.003677001
5.19E-05,0.003677001
5.19E-05,0.003342615
5.19E-05,0.003677001
5.20E-05,0.003008228
5.20E-05,0.003677001
5.20E-05,0.003008228
5.20E-05,0.003677001
5.20E-05,0.004011388
5.21E-05,0.003677001
5.21E-05,0.004345774
5.21E-05,0.003342615
5.21E-05,0.002673841
5.21E-05,0.003342615
5.22E-05,0.002673841
5.22E-05,0.003677001
5.22E-05,0.004011388
5.22E-05,0.003342615
5.22E-05,0.004011388
5.23E-05,0.003008228
5.23E-05,0.003342615
5.23E-05,0.002673841
5.23E-05,0.004345774
5.23E-05,0.003342615
5.24E-05,0.003677001
5.24E-05,0.004011388
5.24E-05,0.003008228
5.24E-05,0.004011388
5.24E-05,0.002339455
5.25E-05,0.003677001
5.25E-05,0.004680161
5.25E-05,0.003342615
5.25E-05,0.004011388
5.25E-05,0.002673841
5.26E-05,0.003342615
5.26E-05,0.003677001
5.26E-05,0.003677001
5.26E-05,0.003342615
5.26E-05,0.002673841
5.27E-05,0.003677001
5.27E-05,0.003342615
5.27E-05,0.003342615
5.27E-05,0.002673841
5.27E-05,0.003677001
5.28E-05,0.003677001
5.28E-05,0.002673841
5.28E-05,0.003677001
5.28E-05,0.002339455
5.28E-05,0.003008228
5.29E-05,0.004011388
5.29E-05,0.002673841
5.29E-05,0.003342615
5.29E-05,0.003008228
5.29E-05,0.003677001
5.30E-05,0.002339455
5.30E-05,0.003008228
5.30E-05,0.003008228
5.30E-05,0.002339455
5.30E-05,0.003342615
5.31E-05,0.003008228
5.31E-05,0.003342615
5.31E-05,0.002673841
5.31E-05,0.002673841
5.31E-05,0.003342615
5.32E-05,0.003677001
5.32E-05,0.002339455
5.32E-05,0.002339455
5.32E-05,0.002673841
5.32E-05,0.004011388
5.33E-05,0.003008228
5.33E-05,0.002673841
5.33E-05,0.003008228
5.33E-05,0.003342615
5.33E-05,0.003342615
5.34E-05,0.002339455
5.34E-05,0.002005068
5.34E-05,0.003342615
5.34E-05,0.002339455
5.34E-05,0.003342615
5.35E-05,0.002673841
5.35E-05,0.004011388
5.35E-05,0.003008228
5.35E-05,0.003342615
5.35E-05,0.002339455
5.36E-05,0.003008228
5.36E-05,0.003342615
5.36E-05,0.003342615
5.36E-05,0.002339455
5.36E-05,0.002005068
5.37E-05,0.002005068
5.37E-05,0.002005068
5.37E-05,0.001670681
5.37E-05,0.002673841
5.37E-05,0.004011388
5.38E-05,0.002005068
5.38E-05,0.002339455
5.38E-05,0.002673841
5.38E-05,0.002339455
5.38E-05,0.002673841
5.39E-05,0.002339455
5.39E-05,0.001001908
5.39E-05,0.002339455
5.39E-05,0.002005068
5.39E-05,0.002339455
5.40E-05,0.002673841
5.40E-05,0.002673841
5.40E-05,0.002339455
5.40E-05,0.002339455
5.40E-05,0.001670681
5.41E-05,0.002339455
5.41E-05,0.002339455
5.41E-05,0.002673841
5.41E-05,0.002339455
5.41E-05,0.003008228
5.42E-05,0.003342615
5.42E-05,0.002339455
5.42E-05,0.001336295
5.42E-05,0.002673841
5.42E-05,0.002339455
5.43E-05,0.002005068
5.43E-05,0.002339455
5.43E-05,0.002339455
5.43E-05,0.001670681
5.43E-05,0.002339455
5.44E-05,0.001670681
5.44E-05,0.002339455
5.44E-05,0.000667521
5.44E-05,0.001001908
5.44E-05,0.002005068
5.45E-05,0.002673841
5.45E-05,0.001670681
5.45E-05,0.001336295
5.45E-05,0.001336295
5.45E-05,0.001336295
5.46E-05,0.001336295
5.46E-05,0.002339455
5.46E-05,0.002005068
5.46E-05,0.001670681
5.46E-05,0.002005068
5.47E-05,0.000333135
5.47E-05,0.001336295
5.47E-05,0.002005068
5.47E-05,0.002339455
5.47E-05,0.001336295
5.48E-05,0.001336295
5.48E-05,0.001670681
5.48E-05,0.001670681
5.48E-05,0.001001908
5.48E-05,0.002673841
5.49E-05,0.001336295
5.49E-05,0.002673841
5.49E-05,0.002673841
5.49E-05,0.002005068
5.49E-05,0.001670681
5.50E-05,0.003008228
5.50E-05,0.002005068
5.50E-05,0.001336295
5.50E-05,0.002005068
5.50E-05,0.001670681
5.51E-05,0.001670681
5.51E-05,0.002673841
5.51E-05,0.001001908
5.51E-05,0.002005068
5.51E-05,0.001001908
5.52E-05,0.001670681
5.52E-05,0.001001908
5.52E-05,0.002339455
5.52E-05,0.001001908
5.52E-05,0.002339455
5.53E-05,0.002339455
5.53E-05,0.002339455
5.53E-05,0.002005068
5.53E-05,0.001336295
5.53E-05,0.001670681
5.54E-05,0.002339455
5.54E-05,0.001336295
5.54E-05,0.001670681
5.54E-05,0.002005068
5.54E-05,0.002005068
5.55E-05,0.001336295
5.55E-05,0.001670681
5.55E-05,0.001670681
5.55E-05,0.001001908
5.55E-05,0.002005068
5.56E-05,0.003008228
5.56E-05,0.002673841
5.56E-05,0.002339455
5.56E-05,0.002005068
5.56E-05,0.003008228
5.57E-05,0.002339455
5.57E-05,0.001670681
5.57E-05,0.002673841
5.57E-05,0.002339455
5.57E-05,0.002005068
5.58E-05,0.001670681
5.58E-05,0.002673841
5.58E-05,0.003342615
5.58E-05,0.002005068
5.58E-05,0.002673841
5.59E-05,0.002339455
5.59E-05,0.002339455
5.59E-05,0.001670681
5.59E-05,0.001336295
5.59E-05,0.000333135
5.60E-05,0.001001908
5.60E-05,0.002005068
5.60E-05,0.001001908
5.60E-05,0.001670681
5.60E-05,0.001336295
5.61E-05,0.000667521
5.61E-05,0.002005068
5.61E-05,0.001670681
5.61E-05,0.002005068
5.61E-05,0.002005068
5.62E-05,0.001670681
5.62E-05,0.001336295
5.62E-05,0.001670681
5.62E-05,0.001336295
5.62E-05,0.001336295
5.63E-05,0.000667521
5.63E-05,0.001001908
5.63E-05,0.002005068
5.63E-05,0.001001908
5.63E-05,0.001001908
5.64E-05,0.001336295
5.64E-05,0.001336295
5.64E-05,-1.25E-06
5.64E-05,0.001336295
5.64E-05,0.000667521
5.65E-05,0.001670681
5.65E-05,0.003008228
5.65E-05,0.002005068
5.65E-05,0.000333135
5.65E-05,0.002005068
5.66E-05,0.002339455
5.66E-05,0.001670681
5.66E-05,0.001670681
5.66E-05,0.001336295
5.66E-05,0.001001908
5.67E-05,0.001670681
5.67E-05,0.001670681
5.67E-05,0.001001908
5.67E-05,0.001670681
5.67E-05,0.001001908
5.68E-05,0.001670681
5.68E-05,0.000333135
5.68E-05,0.001001908
5.68E-05,0.002673841
5.68E-05,0.002005068
5.69E-05,0.001001908
5.69E-05,0.001336295
5.69E-05,0.002005068
5.69E-05,0.002339455
5.69E-05,0.002005068
5.70E-05,0.003008228
5.70E-05,0.002005068
5.70E-05,0.001001908
5.70E-05,0.002005068
5.70E-05,0.002673841
5.71E-05,0.001001908
5.71E-05,0.002005068
5.71E-05,0.001336295
5.71E-05,0.002005068
5.71E-05,0.001336295
5.72E-05,0.002005068
5.72E-05,0.001670681
5.72E-05,0.001670681
5.72E-05,0.000333135
5.72E-05,0.001670681
5.73E-05,0.001670681
5.73E-05,0.001001908
5.73E-05,0.002005068
5.73E-05,0.001336295
5.73E-05,0.002673841
5.74E-05,0.001670681
5.74E-05,0.001336295
5.74E-05,0.001670681
5.74E-05,0.001001908
5.74E-05,0.001670681
5.75E-05,0.001670681
5.75E-05,-1.25E-06
5.75E-05,0.002005068
5.75E-05,0.001670681
5.75E-05,0.002339455
5.76E-05,0.002339455
5.76E-05,0.002673841
5.76E-05,0.001670681
5.76E-05,0.002339455
5.76E-05,0.001670681
5.77E-05,0.002339455
5.77E-05,0.002339455
5.77E-05,0.002339455
5.77E-05,0.002673841
5.77E-05,0.002673841
5.78E-05,0.003008228
5.78E-05,0.002339455
5.78E-05,0.003342615
5.78E-05,0.002005068
5.78E-05,0.002339455
5.79E-05,0.002673841
5.79E-05,0.002673841
5.79E-05,0.002673841
5.79E-05,0.003008228
5.79E-05,0.001336295
5.80E-05,0.002005068
5.80E-05,0.002005068
5.80E-05,0.002005068
5.80E-05,0.002005068
5.80E-05,0.004011388
5.81E-05,0.003008228
5.81E-05,0.002673841
5.81E-05,0.002339455
5.81E-05,0.002673841
5.81E-05,0.001670681
5.82E-05,0.002339455
5.82E-05,0.002673841
5.82E-05,0.001670681
5.82E-05,0.003342615
5.82E-05,0.002339455
5.83E-05,0.002673841
5.83E-05,0.005014548
5.83E-05,0.003342615
5.83E-05,0.003677001
5.83E-05,0.001670681
5.84E-05,0.002673841
5.84E-05,0.002673841
5.84E-05,0.002339455
5.84E-05,0.004011388
5.84E-05,0.003342615
5.85E-05,0.001336295
5.85E-05,0.002339455
5.85E-05,0.002005068
5.85E-05,0.002339455
5.85E-05,0.001670681
5.86E-05,0.002673841
5.86E-05,0.002005068
5.86E-05,0.002673841
5.86E-05,0.003008228
5.86E-05,0.002005068
5.87E-05,0.002673841
5.87E-05,0.001670681
5.87E-05,0.002673841
5.87E-05,0.002673841
5.87E-05,0.002673841
5.88E-05,0.002339455
5.88E-05,0.002339455
5.88E-05,0.000667521
5.88E-05,0.001670681
5.88E-05,0.001336295
5.89E-05,0.002673841
5.89E-05,0.001670681
5.89E-05,0.002673841
5.89E-05,0.002339455
5.89E-05,0.002673841
5.90E-05,0.004011388
5.90E-05,0.002673841
5.90E-05,0.003342615
5.90E-05,0.002673841
5.90E-05,0.002005068
5.91E-05,0.002005068
5.91E-05,0.003008228
5.91E-05,0.004011388
5.91E-05,0.002005068
5.91E-05,0.003677001
5.92E-05,0.002673841
5.92E-05,0.003008228
5.92E-05,0.002339455
5.92E-05,0.003677001
5.92E-05,0.002005068
5.93E-05,0.003342615
5.93E-05,0.003008228
5.93E-05,0.003342615
5.93E-05,0.004345774
5.93E-05,0.002005068
5.94E-05,0.002339455
5.94E-05,0.002673841
5.94E-05,0.002005068
5.94E-05,0.003342615
5.94E-05,0.003008228
5.95E-05,0.003008228
5.95E-05,0.004345774
5.95E-05,0.003677001
5.95E-05,0.001001908
5.95E-05,0.003342615
5.96E-05,0.002673841
5.96E-05,0.004011388
5.96E-05,0.002673841
5.96E-05,0.001336295
5.96E-05,0.003677001
5.97E-05,0.002339455
5.97E-05,0.002673841
5.97E-05,0.002339455
5.97E-05,0.002339455
5.97E-05,0.002673841
5.98E-05,0.002339455
5.98E-05,0.003342615
5.98E-05,0.003008228
5.98E-05,0.003342615
5.98E-05,0.003008228
5.99E-05,0.003008228
5.99E-05,0.004011388
5.99E-05,0.003677001
5.99E-05,0.002005068
5.99E-05,0.003008228
6.00E-05,0.002673841
6.00E-05,0.003008228
6.00E-05,0.002673841
6.00E-05,0.004011388
6.00E-05,0.002339455
6.01E-05,0.002339455
6.01E-05,0.002673841
6.01E-05,0.002339455
6.01E-05,0.002673841
6.01E-05,0.003008228
6.02E-05,0.002673841
6.02E-05,0.002673841
6.02E-05,0.002339455
6.02E-05,0.001670681
6.02E-05,0.002673841
6.03E-05,0.002005068
6.03E-05,0.002339455
6.03E-05,0.003342615
6.03E-05,0.003342615
6.03E-05,0.003008228
6.04E-05,0.001670681
6.04E-05,0.005348934
6.04E-05,0.001670681
6.04E-05,0.002005068
6.04E-05,0.002005068
6.05E-05,0.003342615
6.05E-05,0.001670681
6.05E-05,0.003677001
6.05E-05,0.002673841
6.05E-05,0.003008228
6.06E-05,0.002673841
6.06E-05,0.003008228
6.06E-05,0.002673841
6.06E-05,0.002339455
6.06E-05,0.002339455
6.07E-05,0.004011388
6.07E-05,0.001670681
6.07E-05,0.002339455
6.07E-05,0.002005068
6.07E-05,0.001670681
6.08E-05,0.001670681
6.08E-05,0.002005068
6.08E-05,0.003342615
6.08E-05,0.001001908
6.08E-05,0.002005068
6.09E-05,0.002005068
6.09E-05,0.001336295
6.09E-05,0.002005068
6.09E-05,0.002339455
6.09E-05,0.002673841
6.10E-05,0.001670681
6.10E-05,0.003008228
6.10E-05,0.003008228
6.10E-05,0.003008228
6.10E-05,0.002673841
6.11E-05,0.001336295
6.11E-05,0.002673841
6.11E-05,0.000667521
6.11E-05,0.001336295
6.11E-05,0.003008228
6.12E-05,0.003342615
6.12E-05,0.002673841
6.12E-05,0.002339455
6.12E-05,0.002005068
6.12E-05,0.002339455
6.13E-05,0.003008228
6.13E-05,0.001670681
6.13E-05,0.002673841
6.13E-05,0.002005068
6.13E-05,0.002339455
6.14E-05,0.001001908
6.14E-05,0.002005068
6.14E-05,0.002005068
6.14E-05,0.002005068
6.14E-05,0.001670681
6.15E-05,0.002673841
6.15E-05,0.001670681
6.15E-05,0.001336295
6.15E-05,0.002339455
6.15E-05,0.002005068
6.16E-05,0.002005068
6.16E-05,0.002339455
6.16E-05,0.001670681
6.16E-05,0.001670681
6.16E-05,0.002339455
6.17E-05,0.002339455
6.17E-05,0.002005068
6.17E-05,0.001001908
6.17E-05,0.001001908
6.17E-05,0.002005068
6.18E-05,0.002005068
6.18E-05,0.002005068
6.18E-05,0.003008228
6.18E-05,0.001001908
6.18E-05,0.002673841
6.19E-05,0.001336295
6.19E-05,0.001336295
6.19E-05,0.003008228
6.19E-05,0.002673841
6.19E-05,0.001670681
6.20E-05,0.001001908
6.20E-05,0.001336295
6.20E-05,0.002005068
6.20E-05,0.001670681
6.20E-05,0.000667521
6.21E-05,0.001670681
6.21E-05,0.001670681
6.21E-05,0.001670681
6.21E-05,0.001001908
6.21E-05,0.002005068
6.22E-05,0.001336295
6.22E-05,0.000667521
6.22E-05,0.000333135
6.22E-05,0.000667521
6.22E-05,0.001001908
6.23E-05,0.001670681
6.23E-05,0.001336295
6.23E-05,0.001670681
6.23E-05,0.000667521
6.23E-05,0.002005068
6.24E-05,0.000333135
6.24E-05,0.002339455
6.24E-05,0.002339455
6.24E-05,0.002339455
6.24E-05,0.002339455
6.25E-05,0.001670681
6.25E-05,0.001670681
6.25E-05,0.000333135
6.25E-05,0.002339455
6.25E-05,0.001670681
6.26E-05,0.002005068
6.26E-05,0.002339455
6.26E-05,0.001336295
6.26E-05,0.000667521
6.26E-05,0.001336295
6.27E-05,0.001670681
6.27E-05,0.003008228
6.27E-05,0.002339455
6.27E-05,0.001001908
6.27E-05,0.001001908
6.28E-05,0.001670681
6.28E-05,0.002339455
6.28E-05,0.001670681
6.28E-05,0.001336295
6.28E-05,0.001670681
6.29E-05,0.001670681
6.29E-05,0.002339455
6.29E-05,0.002005068
6.29E-05,0.002339455
6.29E-05,0.001670681
6.30E-05,0.002339455
6.30E-05,0.001670681
6.30E-05,0.001670681
6.30E-05,0.002005068
6.30E-05,0.002339455
6.31E-05,0.001670681
6.31E-05,0.003008228
6.31E-05,0.001336295
6.31E-05,0.002673841
6.31E-05,0.001670681
6.32E-05,0.001670681
6.32E-05,0.002673841
6.32E-05,0.002339455
6.32E-05,0.003008228
6.32E-05,0.002673841
6.33E-05,0.001336295
6.33E-05,0.001670681
6.33E-05,0.002005068
6.33E-05,0.002339455
6.33E-05,0.001336295
6.34E-05,0.002673841
6.34E-05,0.000667521
6.34E-05,0.001670681
6.34E-05,0.001670681
6.34E-05,0.002005068
6.35E-05,0.001001908
6.35E-05,0.002339455
6.35E-05,0.002673841
6.35E-05,0.003677001
6.35E-05,0.002005068
6.36E-05,0.002673841
6.36E-05,0.001670681
6.36E-05,0.002005068
6.36E-05,0.001336295
6.36E-05,0.001336295
6.37E-05,0.003008228
6.37E-05,0.002673841
6.37E-05,0.002673841
6.37E-05,0.002673841
6.37E-05,0.002339455
6.38E-05,0.002005068
6.38E-05,0.000667521
6.38E-05,0.002673841
6.38E-05,0.003008228
6.38E-05,0.002339455
6.39E-05,0.002673841
6.39E-05,0.003342615
6.39E-05,0.003677001
6.39E-05,0.002673841
6.39E-05,0.002673841
6.40E-05,0.002673841
6.40E-05,0.003008228
6.40E-05,0.002339455
6.40E-05,0.003008228
6.40E-05,0.002339455
6.41E-05,0.002339455
6.41E-05,0.003008228
6.41E-05,0.002673841
6.41E-05,0.002339455
6.41E-05,0.002339455
6.42E-05,0.002673841
6.42E-05,0.002005068
6.42E-05,0.003342615
6.42E-05,0.002673841
6.42E-05,0.003342615
6.43E-05,0.002673841
6.43E-05,0.002339455
6.43E-05,0.003008228
6.43E-05,0.002339455
6.43E-05,0.003342615
6.44E-05,0.004345774
6.44E-05,0.003342615
6.44E-05,0.002339455
6.44E-05,0.003008228
6.44E-05,0.002673841
6.45E-05,0.003008228
6.45E-05,0.003342615
6.45E-05,0.002673841
6.45E-05,0.003008228
6.45E-05,0.004011388
6.46E-05,0.002673841
6.46E-05,0.003677001
6.46E-05,0.002005068
6.46E-05,0.003677001
6.46E-05,0.003342615
6.47E-05,0.002673841
6.47E-05,0.002339455
6.47E-05,0.004345774
6.47E-05,0.001670681
6.47E-05,0.001670681
6.48E-05,0.003677001
6.48E-05,0.002673841
6.48E-05,0.002339455
6.48E-05,0.004011388
6.48E-05,0.003677001
6.49E-05,0.002005068
6.49E-05,0.002339455
6.49E-05,0.002339455
6.49E-05,0.002005068
6.49E-05,0.001670681
6.50E-05,0.003008228
6.50E-05,0.002005068
6.50E-05,0.002673841
6.50E-05,0.002339455
6.50E-05,0.002673841
6.51E-05,0.002339455
6.51E-05,0.002339455
6.51E-05,0.001670681
6.51E-05,0.001001908
6.51E-05,0.002005068
6.52E-05,0.003342615
6.52E-05,0.002339455
6.52E-05,0.003342615
6.52E-05,0.001670681
6.52E-05,0.001670681
6.53E-05,0.002005068
6.53E-05,0.002339455
6.53E-05,0.003342615
6.53E-05,0.002673841
6.53E-05,0.001670681
6.54E-05,0.004345774
6.54E-05,0.003342615
6.54E-05,0.002005068
6.54E-05,0.002673841
6.54E-05,0.002673841
6.55E-05,0.002339455
6.55E-05,0.003677001
6.55E-05,0.002673841
6.55E-05,0.001670681
6.55E-05,0.002005068
6.56E-05,0.003342615
6.56E-05,0.002339455
6.56E-05,0.002339455
6.56E-05,0.002339455
6.56E-05,0.002339455
6.57E-05,0.003008228
6.57E-05,0.002339455
6.57E-05,0.002339455
6.57E-05,0.002005068
6.57E-05,0.003008228
6.58E-05,0.002339455
6.58E-05,0.002673841
6.58E-05,0.002673841
6.58E-05,0.003008228
6.58E-05,0.002005068
6.59E-05,0.004011388
6.59E-05,0.002005068
6.59E-05,0.002005068
6.59E-05,0.002339455
6.59E-05,0.002339455
6.60E-05,0.002673841
6.60E-05,0.002339455
6.60E-05,0.003677001
6.60E-05,0.003342615
6.60E-05,0.003677001
6.61E-05,0.003008228
6.61E-05,0.003008228
6.61E-05,0.002673841
6.61E-05,0.001670681
6.61E-05,0.003008228
6.62E-05,0.002339455
6.62E-05,0.002005068
6.62E-05,0.002005068
6.62E-05,0.002673841
6.62E-05,0.001670681
6.63E-05,0.002673841
6.63E-05,0.002339455
6.63E-05,0.003342615
6.63E-05,0.002339455
6.63E-05,0.002339455
6.64E-05,0.002673841
6.64E-05,0.002339455
6.64E-05,0.002673841
6.64E-05,0.001670681
6.64E-05,0.003342615
6.65E-05,0.002005068
6.65E-05,0.002339455
6.65E-05,0.002005068
6.65E-05,0.002339455
6.65E-05,0.002339455
6.66E-05,0.003677001
6.66E-05,0.002339455
6.66E-05,0.002673841
6.66E-05,0.003008228
6.66E-05,0.002339455
6.67E-05,0.001001908
6.67E-05,0.001336295
6.67E-05,0.004345774
6.67E-05,0.001336295
6.67E-05,0.003008228
6.68E-05,0.002005068
6.68E-05,0.002339455
6.68E-05,0.002005068
6.68E-05,0.002339455
6.68E-05,0.002005068
6.69E-05,0.003342615
6.69E-05,0.002673841
6.69E-05,0.003008228
6.69E-05,0.002673841
6.69E-05,0.002673841
6.70E-05,0.002005068
6.70E-05,0.002673841
6.70E-05,0.002339455
6.70E-05,0.001336295
6.70E-05,0.002673841
6.71E-05,0.002339455
6.71E-05,0.001336295
6.71E-05,0.003008228
6.71E-05,0.001670681
6.71E-05,0.002673841
6.72E-05,0.002005068
6.72E-05,0.002339455
6.72E-05,0.001670681
6.72E-05,0.002005068
6.72E-05,0.001670681
6.73E-05,0.002673841
6.73E-05,0.002005068
6.73E-05,0.003008228
6.73E-05,0.002005068
6.73E-05,0.003008228
6.74E-05,0.002339455
6.74E-05,0.002339455
6.74E-05,0.002005068
6.74E-05,0.002005068
6.74E-05,0.001670681
6.75E-05,0.001670681
6.75E-05,0.002005068
6.75E-05,0.001336295
6.75E-05,0.003008228
6.75E-05,0.002339455
6.76E-05,0.002673841
6.76E-05,0.002339455
6.76E-05,0.003008228
6.76E-05,0.002339455
6.76E-05,0.002005068
6.77E-05,0.002339455
6.77E-05,0.002673841
6.77E-05,0.002673841
6.77E-05,0.003342615
6.77E-05,0.002673841
6.78E-05,0.003342615
6.78E-05,0.002005068
6.78E-05,0.001670681
6.78E-05,0.001670681
6.78E-05,0.002673841
6.79E-05,0.003008228
6.79E-05,0.002673841
6.79E-05,0.002673841
6.79E-05,0.001670681
6.79E-05,0.004011388
6.80E-05,0.002339455
6.80E-05,0.000333135
6.80E-05,0.003008228
6.80E-05,0.003008228
6.80E-05,0.001336295
6.81E-05,0.001670681
6.81E-05,0.002005068
6.81E-05,0.002339455
6.81E-05,0.002673841
6.81E-05,0.001670681
6.82E-05,0.001670681
6.82E-05,0.003342615
6.82E-05,0.001336295
6.82E-05,0.001670681
6.82E-05,0.002673841
6.83E-05,0.002339455
6.83E-05,0.002005068
6.83E-05,0.001336295
6.83E-05,0.002673841
6.83E-05,0.002673841
6.84E-05,0.002339455
6.84E-05,0.002673841
6.84E-05,0.002005068
6.84E-05,0.002339455
6.84E-05,0.002339455
6.85E-05,0.002005068
6.85E-05,0.003342615
6.85E-05,0.002005068
6.85E-05,0.001336295
6.85E-05,0.001336295
6.86E-05,0.001336295
6.86E-05,0.002005068
6.86E-05,0.002005068
6.86E-05,0.001336295
6.86E-05,0.001001908
6.87E-05,0.002339455
6.87E-05,0.002339455
6.87E-05,0.001336295
6.87E-05,0.002339455
6.87E-05,0.002673841
6.88E-05,0.002005068
6.88E-05,0.001336295
6.88E-05,0.002005068
6.88E-05,0.002339455
6.88E-05,0.001001908
6.89E-05,0.001670681
6.89E-05,0.002005068
6.89E-05,0.001670681
6.89E-05,0.002673841
6.89E-05,0.002339455
6.90E-05,0.002339455
6.90E-05,0.002673841
6.90E-05,0.002339455
6.90E-05,0.002005068
6.90E-05,0.002005068
6.91E-05,0.002005068
6.91E-05,0.002005068
6.91E-05,0.003008228
6.91E-05,0.001336295
6.91E-05,0.002005068
6.92E-05,0.003008228
6.92E-05,0.002005068
6.92E-05,0.002005068
6.92E-05,0.002673841
6.92E-05,0.002339455
6.93E-05,0.001336295
6.93E-05,0.002005068
6.93E-05,0.001336295
6.93E-05,0.001001908
6.93E-05,0.001670681
6.94E-05,0.001670681
6.94E-05,0.001001908
6.94E-05,0.002005068
6.94E-05,0.001336295
6.94E-05,0.002005068
6.95E-05,0.002005068
6.95E-05,0.001336295
6.95E-05,0.001001908
6.95E-05,0.001001908
6.95E-05,0.001670681
6.96E-05,0.001001908
6.96E-05,0.001336295
6.96E-05,0.002339455
6.96E-05,0.000333135
6.96E-05,0.000333135
6.97E-05,0.001336295
6.97E-05,0.002339455
6.97E-05,0.001001908
6.97E-05,0.001670681
6.97E-05,0.002005068
6.98E-05,0.001001908
6.98E-05,0.001336295
6.98E-05,0.001001908
6.98E-05,0.001670681
6.98E-05,0.001670681
6.99E-05,0.001336295
6.99E-05,0.002005068
6.99E-05,0.002673841
6.99E-05,0.001001908
6.99E-05,0.001670681
7.00E-05,0.002005068
7.00E-05,0.002673841
7.00E-05,0.002339455
7.00E-05,0.001670681
7.00E-05,0.002005068
7.01E-05,0.003008228
7.01E-05,0.003342615
7.01E-05,0.001336295
7.01E-05,0.001001908
7.01E-05,0.002339455
7.02E-05,0.002005068
7.02E-05,0.001670681
7.02E-05,0.003008228
7.02E-05,0.002339455
7.02E-05,0.001670681
7.03E-05,0.002673841
7.03E-05,0.001001908
7.03E-05,0.002673841
7.03E-05,0.002673841
7.03E-05,0.002005068
7.04E-05,0.002339455
7.04E-05,0.002005068
7.04E-05,0.002339455
7.04E-05,0.001336295
7.04E-05,0.001336295
7.05E-05,0.001336295
7.05E-05,0.002673841
7.05E-05,0.002339455
7.05E-05,0.002005068
7.05E-05,0.000667521
7.06E-05,0.002673841
7.06E-05,0.002005068
7.06E-05,0.001670681
7.06E-05,0.002005068
7.06E-05,0.002339455
7.07E-05,0.001670681
7.07E-05,0.003008228
7.07E-05,0.001670681
7.07E-05,0.002339455
7.07E-05,0.003008228
7.08E-05,0.002005068
7.08E-05,0.002005068
7.08E-05,0.002673841
7.08E-05,0.002339455
7.08E-05,0.001001908
7.09E-05,0.002339455
7.09E-05,0.002005068
7.09E-05,0.002673841
7.09E-05,0.001670681
7.09E-05,0.002339455
7.10E-05,0.003008228
7.10E-05,0.002339455
7.10E-05,0.002339455
7.10E-05,0.001670681
7.10E-05,0.002339455
7.11E-05,0.003008228
7.11E-05,0.002005068
7.11E-05,0.002673841
7.11E-05,0.002339455
7.11E-05,0.001670681
7.12E-05,0.002005068
7.12E-05,0.001670681
7.12E-05,0.002339455
7.12E-05,0.002673841
7.12E-05,0.002673841
7.13E-05,0.001336295
7.13E-05,0.002673841
7.13E-05,0.002339455
7.13E-05,0.003008228
7.13E-05,0.002339455
7.14E-05,0.003342615
7.14E-05,0.002339455
7.14E-05,0.002673841
7.14E-05,0.001001908
7.14E-05,0.001670681
7.15E-05,0.002673841
7.15E-05,0.001670681
7.15E-05,0.001670681
7.15E-05,0.002005068
7.15E-05,0.003008228
7.16E-05,0.002673841
7.16E-05,0.002673841
7.16E-05,0.002339455
7.16E-05,0.002339455
7.16E-05,0.002005068
7.17E-05,0.002005068
7.17E-05,0.002673841
7.17E-05,0.002005068
7.17E-05,0.002339455
7.17E-05,0.001670681
7.18E-05,0.002005068
7.18E-05,0.002673841
7.18E-05,0.002339455
7.18E-05,0.002673841
7.18E-05,0.002005068
7.19E-05,0.002673841
7.19E-05,0.003342615
7.19E-05,0.002339455
7.19E-05,0.001336295
7.19E-05,0.001336295
7.20E-05,0.002005068
7.20E-05,0.002673841
7.20E-05,0.002673841
7.20E-05,0.002339455
7.20E-05,0.002339455
7.21E-05,0.002005068
7.21E-05,0.001670681
7.21E-05,0.001670681
7.21E-05,0.002005068
7.21E-05,0.002673841
7.22E-05,0.001670681
7.22E-05,0.001001908
7.22E-05,0.002005068
7.22E-05,0.001670681
7.22E-05,0.002673841
7.23E-05,0.001336295
7.23E-05,0.002339455
7.23E-05,0.001670681
7.23E-05,0.002005068
7.23E-05,0.002339455
7.24E-05,0.000667521
7.24E-05,0.002339455
7.24E-05,0.002339455
7.24E-05,0.003008228
7.24E-05,0.003008228
7.25E-05,0.002673841
7.25E-05,0.002673841
7.25E-05,0.002673841
7.25E-05,0.002339455
7.25E-05,0.002005068
7.26E-05,0.003008228
7.26E-05,0.003342615
7.26E-05,0.003008228
7.26E-05,0.002339455
7.26E-05,0.003008228
7.27E-05,0.002005068
7.27E-05,0.003008228
7.27E-05,0.003342615
7.27E-05,0.003342615
7.27E-05,0.003008228
7.28E-05,0.003342615
7.28E-05,0.002673841
7.28E-05,0.002673841
7.28E-05,0.002673841
7.28E-05,0.003342615
7.29E-05,0.003008228
7.29E-05,0.003008228
7.29E-05,0.002339455
7.29E-05,0.002005068
7.29E-05,0.003677001
7.30E-05,0.003008228
7.30E-05,0.003342615
7.30E-05,0.003008228
7.30E-05,0.002673841
7.30E-05,0.002673841
7.31E-05,0.002005068
7.31E-05,0.002673841
7.31E-05,0.003342615
7.31E-05,0.002673841
7.31E-05,0.003008228
7.32E-05,0.001670681
7.32E-05,0.002005068
7.32E-05,0.002339455
7.32E-05,0.002673841
7.32E-05,0.003008228
7.33E-05,0.002005068
7.33E-05,0.003677001
7.33E-05,0.003342615
7.33E-05,0.002673841
7.33E-05,0.002673841
7.34E-05,0.003008228
7.34E-05,0.002005068
7.34E-05,0.004345774
7.34E-05,0.003342615
7.34E-05,0.002339455
7.35E-05,0.002673841
7.35E-05,0.003008228
7.35E-05,0.001670681
7.35E-05,0.003008228
7.35E-05,0.004011388
7.36E-05,0.002673841
7.36E-05,0.003008228
7.36E-05,0.003677001
7.36E-05,0.002005068
7.36E-05,0.002673841
7.37E-05,0.003677001
7.37E-05,0.002339455
7.37E-05,0.003342615
7.37E-05,0.003342615
7.37E-05,0.002673841
7.38E-05,0.002673841
7.38E-05,0.002005068
7.38E-05,0.002339455
7.38E-05,0.004011388
7.38E-05,0.002673841
7.39E-05,0.002339455
7.39E-05,0.002005068
7.39E-05,0.003008228
7.39E-05,0.002339455
7.39E-05,0.003008228
7.40E-05,0.003008228
7.40E-05,0.003008228
7.40E-05,0.002673841
7.40E-05,0.002005068
7.40E-05,0.002339455
7.41E-05,0.003008228
7.41E-05,0.003342615
7.41E-05,0.003342615
7.41E-05,0.003008228
7.41E-05,0.002339455
7.42E-05,0.003008228
7.42E-05,0.003008228
7.42E-05,0.002005068
7.42E-05,0.003677001
7.42E-05,0.002673841
7.43E-05,0.003008228
7.43E-05,0.002339455
7.43E-05,0.002673841
7.43E-05,0.001670681
7.43E-05,0.001336295
7.44E-05,0.002673841
7.44E-05,0.002673841
7.44E-05,0.003008228
7.44E-05,0.002005068
7.44E-05,0.003008228
7.45E-05,0.003008228
7.45E-05,0.002339455
7.45E-05,0.002673841
7.45E-05,0.003342615
7.45E-05,0.002339455
7.46E-05,0.001670681
7.46E-05,0.002673841
7.46E-05,0.003008228
7.46E-05,0.002339455
7.46E-05,0.004011388
7.47E-05,0.002673841
7.47E-05,0.003008228
7.47E-05,0.002339455
7.47E-05,0.003342615
7.47E-05,0.002339455
7.48E-05,0.002339455
7.48E-05,0.003342615
7.48E-05,0.002673841
7.48E-05,0.003008228
7.48E-05,0.002673841
7.49E-05,0.002005068
7.49E-05,0.001670681
7.49E-05,0.003342615
7.49E-05,0.002673841
7.49E-05,0.003008228
7.50E-05,0.001670681
7.50E-05,0.002673841
7.50E-05,0.002673841
7.50E-05,0.001670681
7.50E-05,0.003342615
7.51E-05,0.001670681
7.51E-05,0.003342615
7.51E-05,0.003677001
7.51E-05,0.001001908
7.51E-05,0.004345774
7.52E-05,0.002673841
7.52E-05,0.002673841
7.52E-05,0.002339455
7.52E-05,0.003342615
7.52E-05,0.001670681
7.53E-05,0.001670681
7.53E-05,0.003342615
7.53E-05,0.002673841
7.53E-05,0.003008228
7.53E-05,0.003008228
7.54E-05,0.002339455
7.54E-05,0.002673841
7.54E-05,0.001336295
7.54E-05,0.001336295
7.54E-05,0.002339455
7.55E-05,0.003342615
7.55E-05,0.004345774
7.55E-05,0.004011388
7.55E-05,0.001336295
7.55E-05,0.003342615
7.56E-05,0.002339455
7.56E-05,0.001001908
7.56E-05,0.002673841
7.56E-05,0.002673841
7.56E-05,0.002339455
7.57E-05,0.002339455
7.57E-05,0.001670681
7.57E-05,0.002005068
7.57E-05,0.001336295
7.57E-05,0.003008228
7.58E-05,0.002339455
7.58E-05,0.001670681
7.58E-05,0.002673841
7.58E-05,0.003342615
7.58E-05,0.002339455
7.59E-05,0.002673841
7.59E-05,0.002673841
7.59E-05,0.003342615
7.59E-05,0.002673841
7.59E-05,0.002005068
7.60E-05,0.002005068
7.60E-05,0.003008228
7.60E-05,0.002339455
7.60E-05,0.003008228
7.60E-05,0.002673841
7.61E-05,0.002339455
7.61E-05,0.003342615
7.61E-05,0.002673841
7.61E-05,0.002339455
7.61E-05,0.003008228
7.62E-05,0.002673841
7.62E-05,0.002339455
7.62E-05,0.003342615
7.62E-05,0.002673841
7.62E-05,0.002005068
7.63E-05,0.001001908
7.63E-05,0.002673841
7.63E-05,0.001001908
7.63E-05,0.002339455
7.63E-05,0.001336295
7.64E-05,0.002005068
7.64E-05,0.002005068
7.64E-05,0.001670681
7.64E-05,0.003342615
7.64E-05,0.002005068
7.65E-05,0.002339455
7.65E-05,0.002339455
7.65E-05,0.002005068
7.65E-05,0.001670681
7.65E-05,0.002339455
7.66E-05,0.002339455
7.66E-05,0.002673841
7.66E-05,0.001001908
7.66E-05,0.002673841
7.66E-05,0.002673841
7.67E-05,0.003677001
7.67E-05,0.002339455
7.67E-05,0.003008228
7.67E-05,0.001336295
7.67E-05,0.002005068
7.68E-05,0.002005068
7.68E-05,0.002005068
7.68E-05,0.002339455
7.68E-05,0.002673841
7.68E-05,0.002005068
7.69E-05,0.002339455
7.69E-05,0.002339455
7.69E-05,0.001670681
7.69E-05,0.002005068
7.69E-05,0.001001908
7.70E-05,0.001670681
7.70E-05,0.000667521
7.70E-05,0.002339455
7.70E-05,0.001670681
7.70E-05,0.001670681
7.71E-05,0.002339455
7.71E-05,0.002339455
7.71E-05,0.002673841
7.71E-05,0.002005068
7.71E-05,0.001001908
7.72E-05,0.001336295
7.72E-05,0.001670681
7.72E-05,0.003008228
7.72E-05,0.002005068
7.72E-05,0.002339455
7.73E-05,0.002005068
7.73E-05,0.002005068
7.73E-05,0.001336295
7.73E-05,0.002339455
7.73E-05,0.001670681
7.74E-05,0.002339455
7.74E-05,0.001001908
7.74E-05,0.001336295
7.74E-05,0.001670681
7.74E-05,0.003008228
7.75E-05,0.002339455
7.75E-05,0.003008228
7.75E-05,0.002339455
7.75E-05,0.002005068
7.75E-05,0.003342615
7.76E-05,0.001670681
7.76E-05,0.001336295
7.76E-05,0.002339455
7.76E-05,0.000667521
7.76E-05,0.002005068
7.77E-05,0.002005068
7.77E-05,0.002673841
7.77E-05,0.002005068
7.77E-05,0.002005068
7.77E-05,0.002005068
7.78E-05,0.002005068
7.78E-05,0.002339455
7.78E-05,0.002339455
7.78E-05,0.001670681
7.78E-05,0.002673841
7.79E-05,0.002005068
7.79E-05,0.000667521
7.79E-05,0.002005068
7.79E-05,0.002005068
7.79E-05,0.001336295
7.80E-05,0.003342615
7.80E-05,0.002005068
7.80E-05,0.002673841
7.80E-05,0.001670681
7.80E-05,0.001670681
7.81E-05,0.001670681
7.81E-05,0.002339455
7.81E-05,0.001001908
7.81E-05,0.002005068
7.81E-05,0.001336295
7.82E-05,0.002673841
7.82E-05,0.001336295
7.82E-05,0.002005068
7.82E-05,0.002005068
7.82E-05,0.001336295
7.83E-05,0.002339455
7.83E-05,0.001670681
7.83E-05,0.002339455
7.83E-05,0.000667521
7.83E-05,0.000667521
7.84E-05,0.002005068
7.84E-05,0.001670681
7.84E-05,0.001001908
7.84E-05,0.001670681
7.84E-05,0.002339455
7.85E-05,0.002339455
7.85E-05,0.002005068
7.85E-05,0.002005068
7.85E-05,0.001670681
7.85E-05,0.001670681
7.86E-05,0.001001908
7.86E-05,0.002339455
7.86E-05,0.001670681
7.86E-05,0.001001908
7.86E-05,0.001336295
7.87E-05,0.001670681
7.87E-05,0.002005068
7.87E-05,0.002005068
7.87E-05,0.001336295
7.87E-05,0.000667521
7.88E-05,0.002673841
7.88E-05,0.002005068
7.88E-05,0.001670681
7.88E-05,0.002339455
7.88E-05,0.002005068
7.89E-05,0.001670681
7.89E-05,0.002673841
7.89E-05,0.003008228
7.89E-05,0.001001908
7.89E-05,0.001336295
7.90E-05,0.001336295
7.90E-05,0.002005068
7.90E-05,0.001336295
7.90E-05,0.001001908
7.90E-05,0.001670681
7.91E-05,0.001001908
7.91E-05,0.002005068
7.91E-05,0.001336295
7.91E-05,0.001670681
7.91E-05,0.002339455
7.92E-05,0.001336295
7.92E-05,0.002339455
7.92E-05,0.001670681
7.92E-05,0.002005068
7.92E-05,0.000667521
7.93E-05,0.001670681
7.93E-05,0.002339455
7.93E-05,0.001670681
7.93E-05,0.002005068
7.93E-05,0.001336295
7.94E-05,0.000667521
7.94E-05,0.001336295
7.94E-05,0.002673841
7.94E-05,0.002005068
7.94E-05,0.000667521
7.95E-05,0.001001908
7.95E-05,0.001670681
7.95E-05,0.001336295
7.95E-05,0.001670681
7.95E-05,0.001001908
7.96E-05,0.001670681
7.96E-05,0.002339455
7.96E-05,0.002339455
7.96E-05,0.001001908
7.96E-05,0.001670681
7.97E-05,0.001670681
7.97E-05,0.001001908
7.97E-05,0.001670681
7.97E-05,0.000667521
7.97E-05,0.002005068
7.98E-05,0.002005068
7.98E-05,0.002005068
7.98E-05,0.003008228
7.98E-05,0.001001908
7.98E-05,0.002005068
7.99E-05,0.001670681
7.99E-05,0.002339455
7.99E-05,0.001336295
7.99E-05,0.001336295
7.99E-05,0.002339455
8.00E-05,0.001670681
8.00E-05,0.001670681
8.00E-05,0.002005068
8.00E-05,0.001336295
8.00E-05,0.003342615
8.01E-05,0.003342615
8.01E-05,0.001336295
8.01E-05,0.001670681
8.01E-05,0.002339455
8.01E-05,0.002673841
8.02E-05,0.002673841
8.02E-05,0.002005068
8.02E-05,0.002005068
8.02E-05,0.002339455
8.02E-05,0.002005068
8.03E-05,0.002673841
8.03E-05,0.001670681
8.03E-05,0.002339455
8.03E-05,0.001336295
8.03E-05,0.002339455
8.04E-05,0.001336295
8.04E-05,0.002339455
8.04E-05,0.001670681
8.04E-05,0.003008228
8.04E-05,0.002673841
8.05E-05,0.003008228
8.05E-05,0.002339455
8.05E-05,0.002673841
8.05E-05,0.002339455
8.05E-05,0.002005068
8.06E-05,0.002673841
8.06E-05,0.002673841
8.06E-05,0.003008228
8.06E-05,0.002339455
8.06E-05,0.002673841
8.07E-05,0.002673841
8.07E-05,0.002339455
8.07E-05,0.002673841
8.07E-05,0.002005068
8.07E-05,0.002339455
8.08E-05,0.002339455
8.08E-05,0.002005068
8.08E-05,0.003008228
8.08E-05,0.002673841
8.08E-05,0.002339455
8.09E-05,0.002673841
8.09E-05,0.002339455
8.09E-05,0.003342615
8.09E-05,0.002005068
8.09E-05,0.002339455
8.10E-05,0.003342615
8.10E-05,0.002005068
8.10E-05,0.002005068
8.10E-05,0.002673841
8.10E-05,0.003008228
8.11E-05,0.003008228
8.11E-05,0.002673841
8.11E-05,0.002673841
8.11E-05,0.002339455
8.11E-05,0.001670681
8.12E-05,0.002005068
8.12E-05,0.002339455
8.12E-05,0.002673841
8.12E-05,0.002339455
8.12E-05,0.001670681
8.13E-05,0.003008228
8.13E-05,0.002673841
8.13E-05,0.002339455
8.13E-05,0.003008228
8.13E-05,0.002673841
8.14E-05,0.002339455
8.14E-05,0.003008228
8.14E-05,0.003008228
8.14E-05,0.001336295
8.14E-05,0.003342615
8.15E-05,0.003008228
8.15E-05,0.002339455
8.15E-05,0.003008228
8.15E-05,0.001670681
8.15E-05,0.002673841
8.16E-05,0.003342615
8.16E-05,0.002339455
8.16E-05,0.002339455
8.16E-05,0.003008228
8.16E-05,0.002339455
8.17E-05,0.003342615
8.17E-05,0.003342615
8.17E-05,0.002005068
8.17E-05,0.004345774
8.17E-05,0.001670681
8.18E-05,0.003677001
8.18E-05,0.001336295
8.18E-05,0.003342615
8.18E-05,0.001336295
8.18E-05,0.002673841
8.19E-05,0.002673841
8.19E-05,0.001670681
8.19E-05,0.002673841
8.19E-05,0.002673841
